Sample Index,EXG Channel 0,EXG Channel 1,EXG Channel 2,EXG Channel 3,EXG Channel 4,EXG Channel 5,EXG Channel 6,EXG Channel 7,Accel Channel 0,Accel Channel 1,Accel Channel 2, Other, Other, Other, Other, Other, Other, Other,Analog Channel 0,Analog Channel 1,Analog Channel 2, Timestamp, Other, Timestamp (Formatted)
227.0,-1072.9731408325600,-3793.850993377090,10606.52859288800,-13860.36144022480,21958.845491271700,0.0,0.0,0.0,0.0,0.0,0.0,192.0,0.0,0.0,0.0,0.0,0.0,0.0,0.0,0.0,0.0,1.6781404044128E+09,0.0,2023-03-06 14:06:44.412
228.0,-1062.8925040832200,-3794.678007921940,10626.175776264200,-13863.334222237400,21970.267232688300,0.0,0.0,0.0,0.0,0.0,0.0,192.0,0.0,0.0,0.0,0.0,0.0,0.0,0.0,0.0,0.0,1.67814040441282E+09,0.0,2023-03-06 14:06:44.412
229.0,-1064.658291895190,-3794.700359666390,10618.218555238100,-13862.88718734830,21964.858110530200,0.0,0.0,0.0,0.0,0.0,0.0,192.0,0.0,0.0,0.0,0.0,0.0,0.0,0.0,0.0,0.0,1.67814040441283E+09,0.0,2023-03-06 14:06:44.412
0.0,0.0,0.0,0.0,0.0,0.0,0.0,0.0,0.0,0.428,-0.484,-0.8220000000000000,192.0,13.0,96.0,240.0,224.0,230.0,80.0,0.0,0.0,0.0,1.67814040451465E+09,0.0,2023-03-06 14:06:44.514
1.0,-912.9346505325620,-3554.508513749660,10710.64301856080,-13747.90981387020,21487.134276286900,0.0,0.0,0.0,0.428,-0.484,-0.8220000000000000,192.0,0.0,0.0,0.0,0.0,0.0,0.0,0.0,0.0,0.0,1.67814040453068E+09,0.0,2023-03-06 14:06:44.530
2.0,-906.9443830185390,-3553.502685249170,10722.869422777800,-13749.809712148900,21486.463723953200,0.0,0.0,0.0,0.428,-0.484,-0.8220000000000000,192.0,0.0,0.0,0.0,0.0,0.0,0.0,0.0,0.0,0.0,1.67814040453468E+09,0.0,2023-03-06 14:06:44.534
3.0,-896.3496561467240,-3547.2665485461400,10758.922786584200,-13745.920508613600,21501.662910182800,0.0,0.0,0.0,0.428,-0.484,-0.8220000000000000,192.0,0.0,0.0,0.0,0.0,0.0,0.0,0.0,0.0,0.0,1.67814040453772E+09,0.0,2023-03-06 14:06:44.537
4.0,-897.2213741804810,-3547.2665485461400,10761.22501626310,-13747.48513072550,21503.96513986170,0.0,0.0,0.0,0.428,-0.484,-0.8220000000000000,192.0,0.0,0.0,0.0,0.0,0.0,0.0,0.0,0.0,0.0,1.67814040454274E+09,0.0,2023-03-06 14:06:44.542
5.0,-912.0182290098940,-3547.870045646440,10715.582754085400,-13752.558976716900,21488.520084443100,0.0,0.0,0.0,0.428,-0.484,-0.8220000000000000,192.0,0.0,0.0,0.0,0.0,0.0,0.0,0.0,0.0,0.0,1.67814040454579E+09,0.0,2023-03-06 14:06:44.545
6.0,-914.2310517109700,-3548.518246235640,10715.672161063200,-13753.497749984000,21488.16245653180,0.0,0.0,0.0,0.428,-0.484,-0.8220000000000000,192.0,0.0,0.0,0.0,0.0,0.0,0.0,0.0,0.0,0.0,1.67814040454888E+09,0.0,2023-03-06 14:06:44.548
7.0,-902.2505166829250,-3549.5240747361300,10755.681783638200,-13754.81650290690,21495.091497313000,0.0,0.0,0.0,0.428,-0.484,-0.8220000000000000,192.0,0.0,0.0,0.0,0.0,0.0,0.0,0.0,0.0,0.0,1.67814040455384E+09,0.0,2023-03-06 14:06:44.553
8.0,-897.377836391668,-3550.9545863812700,10764.466019209100,-13760.940880887600,21490.487037955200,0.0,0.0,0.0,0.426,-0.482,-0.8220000000000000,192.0,13.0,80.0,240.0,240.0,230.0,80.0,0.0,0.0,0.0,1.67814040455782E+09,0.0,2023-03-06 14:06:44.557
9.0,-913.5157958884000,-3553.346223037990,10722.936478011200,-13758.258671553000,21471.957441801700,0.0,0.0,0.0,0.426,-0.482,-0.8220000000000000,192.0,0.0,0.0,0.0,0.0,0.0,0.0,0.0,0.0,0.0,1.67814040456189E+09,0.0,2023-03-06 14:06:44.561
10.0,-918.0308482683720,-3555.2014178277800,10711.157108683200,-13757.990450619500,21468.604680133400,0.0,0.0,0.0,0.426,-0.482,-0.8220000000000000,192.0,0.0,0.0,0.0,0.0,0.0,0.0,0.0,0.0,0.0,1.67814040456584E+09,0.0,2023-03-06 14:06:44.565
11.0,-903.0775312277710,-3552.787429426600,10750.27266148000,-13760.650308209700,21480.09347678350,0.0,0.0,0.0,0.426,-0.482,-0.8220000000000000,192.0,0.0,0.0,0.0,0.0,0.0,0.0,0.0,0.0,0.0,1.67814040456995E+09,0.0,2023-03-06 14:06:44.569
12.0,-896.2602491689030,-3552.0721736040300,10767.014118077100,-13761.902005899200,21487.044869309100,0.0,0.0,0.0,0.426,-0.482,-0.8220000000000000,192.0,0.0,0.0,0.0,0.0,0.0,0.0,0.0,0.0,0.0,1.67814040457389E+09,0.0,2023-03-06 14:06:44.573
13.0,-905.5138713734000,-3551.9380631373000,10733.844129305400,-13752.849549394800,21481.658098895300,0.0,0.0,0.0,0.426,-0.482,-0.8220000000000000,192.0,0.0,0.0,0.0,0.0,0.0,0.0,0.0,0.0,0.0,1.67814040457694E+09,0.0,2023-03-06 14:06:44.576
14.0,-912.666429599098,-3549.8817026474100,10710.464204605100,-13746.635764436200,21482.932148329300,0.0,0.0,0.0,0.426,-0.482,-0.8220000000000000,192.0,0.0,0.0,0.0,0.0,0.0,0.0,0.0,0.0,0.0,1.67814040458092E+09,0.0,2023-03-06 14:06:44.580
15.0,-903.3681039056900,-3545.9701473677300,10745.847016077900,-13753.788322661900,21499.15951480380,0.0,0.0,0.0,0.426,-0.482,-0.8220000000000000,192.0,0.0,0.0,0.0,0.0,0.0,0.0,0.0,0.0,0.0,1.67814040458593E+09,0.0,2023-03-06 14:06:44.585
16.0,-891.5440310888330,-3545.4337055008100,10769.919844856200,-13760.449142509600,21507.58612246350,0.0,0.0,0.0,0.426,-0.482,-0.8220000000000000,192.0,0.0,0.0,0.0,0.0,0.0,0.0,0.0,0.0,0.0,1.67814040458994E+09,0.0,2023-03-06 14:06:44.589
17.0,-893.8686125121850,-3547.51241773515,10742.583661387400,-13758.370430275300,21495.516180457600,0.0,0.0,0.0,0.426,-0.482,-0.8220000000000000,192.0,0.0,0.0,0.0,0.0,0.0,0.0,0.0,0.0,0.0,1.67814040459396E+09,0.0,2023-03-06 14:06:44.593
18.0,-903.6139730946990,-3550.0381648586000,10706.35148362540,-13750.48026448250,21483.557997174000,0.0,0.0,0.0,0.43,-0.48,-0.8260000000000000,192.0,13.0,112.0,241.0,0.0,230.0,48.0,0.0,0.0,0.0,1.67814040459806E+09,0.0,2023-03-06 14:06:44.598
19.0,-898.2719061698800,-3551.3569177814600,10734.26881245000,-13750.1449883157,21498.64542468140,0.0,0.0,0.0,0.43,-0.48,-0.8260000000000000,192.0,0.0,0.0,0.0,0.0,0.0,0.0,0.0,0.0,0.0,1.678140404601E+09,0.0,2023-03-06 14:06:44.600
20.0,-895.8132142797970,-3553.3015195490700,10761.828513363400,-13748.803883648400,21507.988453863700,0.0,0.0,0.0,0.43,-0.48,-0.8260000000000000,192.0,0.0,0.0,0.0,0.0,0.0,0.0,0.0,0.0,0.0,1.67814040460501E+09,0.0,2023-03-06 14:06:44.605
21.0,-903.5469178613330,-3553.413278271350,10744.818835832900,-13746.501653969500,21500.388860748900,0.0,0.0,0.0,0.43,-0.48,-0.8260000000000000,192.0,0.0,0.0,0.0,0.0,0.0,0.0,0.0,0.0,0.0,1.67814040460905E+09,0.0,2023-03-06 14:06:44.609
22.0,-908.8442812972410,-3553.3015195490700,10703.557515568400,-13744.154720801700,21482.64157565140,0.0,0.0,0.0,0.43,-0.48,-0.8260000000000000,192.0,0.0,0.0,0.0,0.0,0.0,0.0,0.0,0.0,0.0,1.67814040461313E+09,0.0,2023-03-06 14:06:44.613
23.0,-899.2553829259140,-3551.5580834815600,10724.858728034300,-13744.95938360210,21486.01668906410,0.0,0.0,0.0,0.43,-0.48,-0.8260000000000000,192.0,0.0,0.0,0.0,0.0,0.0,0.0,0.0,0.0,0.0,1.67814040461807E+09,0.0,2023-03-06 14:06:44.618
24.0,-887.990103720439,-3551.6474904593800,10757.55933017250,-13747.351020258800,21493.325709501000,0.0,0.0,0.0,0.43,-0.48,-0.8260000000000000,192.0,0.0,0.0,0.0,0.0,0.0,0.0,0.0,0.0,0.0,1.67814040462206E+09,0.0,2023-03-06 14:06:44.622
25.0,-892.2816386558580,-3554.1955893272900,10751.591414402900,-13755.218834307100,21489.72707864370,0.0,0.0,0.0,0.43,-0.48,-0.8260000000000000,192.0,0.0,0.0,0.0,0.0,0.0,0.0,0.0,0.0,0.0,1.67814040462612E+09,0.0,2023-03-06 14:06:44.626
26.0,-906.7879208073520,-3557.213074828750,10706.396187114300,-13752.380162761200,21475.757238359100,0.0,0.0,0.0,0.43,-0.48,-0.8260000000000000,192.0,0.0,0.0,0.0,0.0,0.0,0.0,0.0,0.0,0.0,1.67814040462915E+09,0.0,2023-03-06 14:06:44.629
27.0,-908.7325225749640,-3557.570702740040,10716.789748286000,-13746.345191758300,21487.53660768710,0.0,0.0,0.0,0.43,-0.48,-0.8260000000000000,192.0,0.0,0.0,0.0,0.0,0.0,0.0,0.0,0.0,0.0,1.67814040463315E+09,0.0,2023-03-06 14:06:44.633
28.0,-900.2612114264030,-3554.642624216390,10755.480617938100,-13744.847624879800,21494.197427534800,0.0,0.0,0.0,0.424,-0.47800000000000000,-0.8320000000000000,192.0,13.0,64.0,241.0,16.0,230.0,0.0,0.0,0.0,0.0,1.67814040463719E+09,0.0,2023-03-06 14:06:44.637
29.0,-897.6460573251320,-3557.1013161064800,10759.615690662300,-13743.10418881230,21494.130372301400,0.0,0.0,0.0,0.424,-0.47800000000000000,-0.8320000000000000,192.0,0.0,0.0,0.0,0.0,0.0,0.0,0.0,0.0,0.0,1.67814040464123E+09,0.0,2023-03-06 14:06:44.641
30.0,-910.408903409112,-3559.604711485470,10714.26400116250,-13742.277174267400,21473.946747058200,0.0,0.0,0.0,0.424,-0.47800000000000000,-0.8320000000000000,192.0,0.0,0.0,0.0,0.0,0.0,0.0,0.0,0.0,0.0,1.67814040464624E+09,0.0,2023-03-06 14:06:44.646
31.0,-913.8957755441400,-3559.4929527631900,10711.06770170540,-13744.065313823900,21466.794188832500,0.0,0.0,0.0,0.424,-0.47800000000000000,-0.8320000000000000,192.0,0.0,0.0,0.0,0.0,0.0,0.0,0.0,0.0,0.0,1.67814040465019E+09,0.0,2023-03-06 14:06:44.650
32.0,-902.4740341274780,-3555.4696387612400,10746.02583003350,-13741.316049255900,21485.167322774800,0.0,0.0,0.0,0.424,-0.47800000000000000,-0.8320000000000000,192.0,0.0,0.0,0.0,0.0,0.0,0.0,0.0,0.0,0.0,1.67814040465426E+09,0.0,2023-03-06 14:06:44.654
33.0,-900.6411910821430,-3556.7436881951900,10754.631251648800,-13745.42877023560,21490.621148421900,0.0,0.0,0.0,0.424,-0.47800000000000000,-0.8320000000000000,192.0,0.0,0.0,0.0,0.0,0.0,0.0,0.0,0.0,0.0,1.67814040465723E+09,0.0,2023-03-06 14:06:44.657
34.0,-909.537185375355,-3557.7718684401400,10713.54874534000,-13749.921470871100,21475.354906958900,0.0,0.0,0.0,0.424,-0.47800000000000000,-0.8320000000000000,192.0,0.0,0.0,0.0,0.0,0.0,0.0,0.0,0.0,0.0,1.67814040466129E+09,0.0,2023-03-06 14:06:44.661
35.0,-909.8054063088190,-3556.117839350440,10700.651788789200,-13745.205252791100,21469.543453400500,0.0,0.0,0.0,0.424,-0.47800000000000000,-0.8320000000000000,192.0,0.0,0.0,0.0,0.0,0.0,0.0,0.0,0.0,0.0,1.6781404046653E+09,0.0,2023-03-06 14:06:44.665
36.0,-898.9871619924500,-3553.078002104520,10741.22020497560,-13746.635764436200,21486.173151275300,0.0,0.0,0.0,0.424,-0.47800000000000000,-0.8320000000000000,192.0,0.0,0.0,0.0,0.0,0.0,0.0,0.0,0.0,0.0,1.67814040466933E+09,0.0,2023-03-06 14:06:44.669
37.0,-894.0697782122830,-3549.9040543918700,10762.65552790830,-13739.304392254900,21504.16630556180,0.0,0.0,0.0,0.424,-0.47800000000000000,-0.8320000000000000,192.0,0.0,0.0,0.0,0.0,0.0,0.0,0.0,0.0,0.0,1.6781404046733E+09,0.0,2023-03-06 14:06:44.673
38.0,-900.8647085266960,-3546.193664812290,10730.22314670360,-13732.665924151700,21489.928244343800,0.0,0.0,0.0,0.426,-0.47400000000000000,-0.8280000000000000,192.0,13.0,80.0,241.0,48.0,230.0,32.0,0.0,0.0,0.0,1.67814040467833E+09,0.0,2023-03-06 14:06:44.678
39.0,-908.9113365306060,-3545.8807403899100,10702.64109404580,-13733.068255551800,21478.8194273495,0.0,0.0,0.0,0.426,-0.47400000000000000,-0.8280000000000000,192.0,0.0,0.0,0.0,0.0,0.0,0.0,0.0,0.0,0.0,1.67814040468237E+09,0.0,2023-03-06 14:06:44.682
40.0,-900.8200050377850,-3543.4220484998300,10738.426236918700,-13734.38700847470,21491.44816296680,0.0,0.0,0.0,0.426,-0.47400000000000000,-0.8280000000000000,192.0,0.0,0.0,0.0,0.0,0.0,0.0,0.0,0.0,0.0,1.67814040468541E+09,0.0,2023-03-06 14:06:44.685
41.0,-883.3409408737350,-3539.2422722866900,10763.840170364400,-13734.43171196360,21502.44522123880,0.0,0.0,0.0,0.426,-0.47400000000000000,-0.8280000000000000,192.0,0.0,0.0,0.0,0.0,0.0,0.0,0.0,0.0,0.0,1.67814040468943E+09,0.0,2023-03-06 14:06:44.689
42.0,-884.6373420521430,-3537.185911796800,10737.17453922920,-13738.119749798700,21491.694032155800,0.0,0.0,0.0,0.426,-0.47400000000000000,-0.8280000000000000,192.0,0.0,0.0,0.0,0.0,0.0,0.0,0.0,0.0,0.0,1.67814040469455E+09,0.0,2023-03-06 14:06:44.694
43.0,-895.8355660242520,-3538.482312975210,10702.998721957100,-13741.76308414500,21473.67852612480,0.0,0.0,0.0,0.426,-0.47400000000000000,-0.8280000000000000,192.0,0.0,0.0,0.0,0.0,0.0,0.0,0.0,0.0,0.0,1.67814040469742E+09,0.0,2023-03-06 14:06:44.697
44.0,-890.1805746770590,-3538.07998157501,10731.430140904200,-13740.869014366700,21493.01278507860,0.0,0.0,0.0,0.426,-0.47400000000000000,-0.8280000000000000,192.0,0.0,0.0,0.0,0.0,0.0,0.0,0.0,0.0,0.0,1.67814040470146E+09,0.0,2023-03-06 14:06:44.701
45.0,-881.1057664282040,-3536.2024350407600,10759.839208106900,-13739.662020166200,21506.669700940800,0.0,0.0,0.0,0.426,-0.47400000000000000,-0.8280000000000000,192.0,0.0,0.0,0.0,0.0,0.0,0.0,0.0,0.0,0.0,1.67814040470547E+09,0.0,2023-03-06 14:06:44.705
46.0,-890.3817403771570,-3539.8681211314300,10742.382495687300,-13742.187767289600,21501.327634016000,0.0,0.0,0.0,0.426,-0.47400000000000000,-0.8280000000000000,192.0,0.0,0.0,0.0,0.0,0.0,0.0,0.0,0.0,0.0,1.67814040470951E+09,0.0,2023-03-06 14:06:44.709
47.0,-902.0940544717380,-3544.1149525779400,10702.26111439000,-13736.868052109200,21483.178017518300,0.0,0.0,0.0,0.426,-0.47400000000000000,-0.8280000000000000,192.0,0.0,0.0,0.0,0.0,0.0,0.0,0.0,0.0,0.0,1.67814040471356E+09,0.0,2023-03-06 14:06:44.713
48.0,-894.8073857793080,-3543.980842111210,10722.332980910900,-13737.315086998400,21494.845628124000,0.0,0.0,0.0,0.426,-0.47400000000000000,-0.8260000000000000,192.0,13.0,80.0,241.0,48.0,230.0,48.0,0.0,0.0,0.0,1.67814040471758E+09,0.0,2023-03-06 14:06:44.717
49.0,-885.6208188081760,-3540.829246143010,10754.877120837800,-13738.85735736580,21511.96706437670,0.0,0.0,0.0,0.426,-0.47400000000000000,-0.8260000000000000,192.0,0.0,0.0,0.0,0.0,0.0,0.0,0.0,0.0,0.0,1.67814040472263E+09,0.0,2023-03-06 14:06:44.722
50.0,-890.7617200328970,-3542.013888599140,10750.674992880200,-13739.885537610700,21502.55697996100,0.0,0.0,0.0,0.426,-0.47400000000000000,-0.8260000000000000,192.0,0.0,0.0,0.0,0.0,0.0,0.0,0.0,0.0,0.0,1.67814040472562E+09,0.0,2023-03-06 14:06:44.725
51.0,-903.4798626279670,-3543.980842111210,10707.960809226100,-13739.416150977200,21476.02545929260,0.0,0.0,0.0,0.426,-0.47400000000000000,-0.8260000000000000,192.0,0.0,0.0,0.0,0.0,0.0,0.0,0.0,0.0,0.0,1.67814040472866E+09,0.0,2023-03-06 14:06:44.728
52.0,-899.5236038593770,-3544.919615378330,10717.862632019800,-13748.669773181700,21472.49388366870,0.0,0.0,0.0,0.426,-0.47400000000000000,-0.8260000000000000,192.0,0.0,0.0,0.0,0.0,0.0,0.0,0.0,0.0,0.0,1.67814040473361E+09,0.0,2023-03-06 14:06:44.733
53.0,-890.5829060772550,-3544.4055252558600,10757.738144128100,-13751.620203449800,21486.93311058680,0.0,0.0,0.0,0.426,-0.47400000000000000,-0.8260000000000000,192.0,0.0,0.0,0.0,0.0,0.0,0.0,0.0,0.0,0.0,1.6781404047376E+09,0.0,2023-03-06 14:06:44.737
54.0,-898.2942579143360,-3544.8078566560600,10760.107429040400,-13754.749447673500,21489.16828503230,0.0,0.0,0.0,0.426,-0.47400000000000000,-0.8260000000000000,192.0,0.0,0.0,0.0,0.0,0.0,0.0,0.0,0.0,0.0,1.67814040474161E+09,0.0,2023-03-06 14:06:44.741
55.0,-912.2864499433580,-3544.4502287447700,10714.711036051600,-13758.929223886600,21469.45404642270,0.0,0.0,0.0,0.426,-0.47400000000000000,-0.8260000000000000,192.0,0.0,0.0,0.0,0.0,0.0,0.0,0.0,0.0,0.0,1.67814040474565E+09,0.0,2023-03-06 14:06:44.745
56.0,-909.1125022307040,-3547.467714246240,10710.9782947276,-13759.599776220300,21471.555110401500,0.0,0.0,0.0,0.426,-0.47400000000000000,-0.8260000000000000,192.0,0.0,0.0,0.0,0.0,0.0,0.0,0.0,0.0,0.0,1.67814040474968E+09,0.0,2023-03-06 14:06:44.749
57.0,-895.8132142797970,-3549.546426480580,10750.205606246700,-13754.05654359540,21486.128447786400,0.0,0.0,0.0,0.426,-0.47400000000000000,-0.8260000000000000,192.0,0.0,0.0,0.0,0.0,0.0,0.0,0.0,0.0,0.0,1.67814040475366E+09,0.0,2023-03-06 14:06:44.753
58.0,-891.3875688776460,-3547.534769479610,10761.873216852300,-13756.649345952200,21492.29752925610,0.0,0.0,0.0,0.426,-0.47000000000000000,-0.8240000000000000,192.0,13.0,80.0,241.0,80.0,230.0,64.0,0.0,0.0,0.0,1.67814040475671E+09,0.0,2023-03-06 14:06:44.756
59.0,-902.0493509828270,-3549.211150313750,10722.243573933100,-13756.045848851900,21469.118770255900,0.0,0.0,0.0,0.426,-0.47000000000000000,-0.8240000000000000,192.0,0.0,0.0,0.0,0.0,0.0,0.0,0.0,0.0,0.0,1.6781404047617E+09,0.0,2023-03-06 14:06:44.761
60.0,-907.2573074409140,-3551.4910282481900,10705.613876058300,-13758.079857597300,21451.751464814100,0.0,0.0,0.0,0.426,-0.47000000000000000,-0.8240000000000000,192.0,0.0,0.0,0.0,0.0,0.0,0.0,0.0,0.0,0.0,1.67814040476576E+09,0.0,2023-03-06 14:06:44.765
61.0,-898.5177753588890,-3551.669842203840,10744.8858910663,-13757.655174452700,21465.363677187400,0.0,0.0,0.0,0.426,-0.47000000000000000,-0.8240000000000000,192.0,0.0,0.0,0.0,0.0,0.0,0.0,0.0,0.0,0.0,1.67814040476976E+09,0.0,2023-03-06 14:06:44.769
62.0,-896.506118357911,-3553.9050166493700,10764.309556998000,-13757.833988408300,21478.35004071590,0.0,0.0,0.0,0.426,-0.47000000000000000,-0.8240000000000000,192.0,0.0,0.0,0.0,0.0,0.0,0.0,0.0,0.0,0.0,1.67814040477378E+09,0.0,2023-03-06 14:06:44.773
63.0,-909.2019092085250,-3555.961377139260,10730.066684492400,-13757.878691897200,21465.944822543200,0.0,0.0,0.0,0.426,-0.47000000000000000,-0.8240000000000000,192.0,0.0,0.0,0.0,0.0,0.0,0.0,0.0,0.0,0.0,1.67814040477778E+09,0.0,2023-03-06 14:06:44.777
64.0,-914.1863482220590,-3554.284996305110,10700.137698666800,-13760.426790765100,21453.539604370500,0.0,0.0,0.0,0.426,-0.47000000000000000,-0.8240000000000000,192.0,0.0,0.0,0.0,0.0,0.0,0.0,0.0,0.0,0.0,1.67814040478083E+09,0.0,2023-03-06 14:06:44.780
65.0,-899.925935259573,-3553.1897608268000,10734.112350238800,-13760.896177398700,21468.984659789200,0.0,0.0,0.0,0.426,-0.47000000000000000,-0.8240000000000000,192.0,0.0,0.0,0.0,0.0,0.0,0.0,0.0,0.0,0.0,1.67814040478487E+09,0.0,2023-03-06 14:06:44.784
66.0,-891.0746444552710,-3550.2840340476100,10760.241539507100,-13759.488017498000,21480.7193256282,0.0,0.0,0.0,0.426,-0.47000000000000000,-0.8240000000000000,192.0,0.0,0.0,0.0,0.0,0.0,0.0,0.0,0.0,0.0,1.67814040478884E+09,0.0,2023-03-06 14:06:44.788
67.0,-897.2437259249360,-3547.244196801690,10736.79455957350,-13755.82233140740,21467.241223721700,0.0,0.0,0.0,0.426,-0.47000000000000000,-0.8240000000000000,192.0,0.0,0.0,0.0,0.0,0.0,0.0,0.0,0.0,0.0,1.67814040479387E+09,0.0,2023-03-06 14:06:44.793
68.0,-907.7490458189300,-3551.379269525920,10700.852954489300,-13758.616299464300,21440.463833864200,0.0,0.0,0.0,0.426,-0.47000000000000000,-0.8240000000000000,192.0,0.0,0.0,0.0,0.0,0.0,0.0,0.0,0.0,0.0,1.67814040479794E+09,0.0,2023-03-06 14:06:44.797
69.0,-902.2505166829250,-3551.669842203840,10730.916050781700,-13759.555072731400,21453.226679948200,0.0,0.0,0.0,0.426,-0.47800000000000000,-0.8260000000000000,192.0,13.0,80.0,241.0,16.0,230.0,48.0,0.0,0.0,0.0,1.67814040480194E+09,0.0,2023-03-06 14:06:44.801
70.0,-892.1251764446710,-3547.9371008798000,10764.17544653120,-13755.241186051500,21472.024497035100,0.0,0.0,0.0,0.426,-0.47800000000000000,-0.8260000000000000,192.0,0.0,0.0,0.0,0.0,0.0,0.0,0.0,0.0,0.0,1.67814040480595E+09,0.0,2023-03-06 14:06:44.805
71.0,-894.9414962460400,-3546.841865401490,10752.239614992100,-13754.347116273300,21464.447255664700,0.0,0.0,0.0,0.426,-0.47800000000000000,-0.8260000000000000,192.0,0.0,0.0,0.0,0.0,0.0,0.0,0.0,0.0,0.0,1.67814040480893E+09,0.0,2023-03-06 14:06:44.808
72.0,-907.0784934852710,-3545.8136851565500,10712.83348951740,-13753.67656393960,21447.571688601000,0.0,0.0,0.0,0.426,-0.47800000000000000,-0.8260000000000000,192.0,0.0,0.0,0.0,0.0,0.0,0.0,0.0,0.0,0.0,1.67814040481297E+09,0.0,2023-03-06 14:06:44.812
73.0,-901.5799643492660,-3542.729144421710,10735.296992695000,-13751.955479616600,21460.267479451600,0.0,0.0,0.0,0.426,-0.47800000000000000,-0.8260000000000000,192.0,0.0,0.0,0.0,0.0,0.0,0.0,0.0,0.0,0.0,1.67814040481701E+09,0.0,2023-03-06 14:06:44.817
74.0,-895.0309032238610,-3541.6562606878600,10772.84792337990,-13753.67656393960,21477.366563959900,0.0,0.0,0.0,0.426,-0.47800000000000000,-0.8260000000000000,192.0,0.0,0.0,0.0,0.0,0.0,0.0,0.0,0.0,0.0,1.67814040482099E+09,0.0,2023-03-06 14:06:44.820
75.0,-895.2544206684140,-3541.6562606878600,10765.9412343432,-13758.81746516440,21472.67269762430,0.0,0.0,0.0,0.426,-0.47800000000000000,-0.8260000000000000,192.0,0.0,0.0,0.0,0.0,0.0,0.0,0.0,0.0,0.0,1.67814040482599E+09,0.0,2023-03-06 14:06:44.825
76.0,-907.8384527967520,-3543.0644205885400,10717.393245386300,-13761.231453565500,21452.310258425500,0.0,0.0,0.0,0.426,-0.47800000000000000,-0.8260000000000000,192.0,0.0,0.0,0.0,0.0,0.0,0.0,0.0,0.0,0.0,1.67814040483002E+09,0.0,2023-03-06 14:06:44.830
77.0,-906.98908650745,-3543.734972922200,10722.221222188600,-13763.10900009980,21456.221813705200,0.0,0.0,0.0,0.426,-0.47800000000000000,-0.8260000000000000,192.0,0.0,0.0,0.0,0.0,0.0,0.0,0.0,0.0,0.0,1.67814040483302E+09,0.0,2023-03-06 14:06:44.833
78.0,-895.9696764909840,-3541.2986327765700,10760.777981374000,-13763.511331500000,21474.77376160310,0.0,0.0,0.0,0.426,-0.47800000000000000,-0.8260000000000000,192.0,0.0,0.0,0.0,0.0,0.0,0.0,0.0,0.0,0.0,1.67814040483702E+09,0.0,2023-03-06 14:06:44.837
79.0,-895.120310201682,-3541.8797781324100,10766.343565743400,-13766.350003045800,21480.451104694700,0.0,0.0,0.0,0.428,-0.47200000000000000,-0.8260000000000000,192.0,13.0,96.0,241.0,64.0,230.0,48.0,0.0,0.0,0.0,1.67814040484106E+09,0.0,2023-03-06 14:06:44.841
80.0,-908.6207638526870,-3547.870045646440,10723.383512900300,-13765.277119311900,21454.836005549000,0.0,0.0,0.0,0.428,-0.47200000000000000,-0.8260000000000000,192.0,0.0,0.0,0.0,0.0,0.0,0.0,0.0,0.0,0.0,1.67814040484506E+09,0.0,2023-03-06 14:06:44.845
81.0,-909.8724615421850,-3549.3005572915700,10715.336884896400,-13757.722229686100,21459.887499795900,0.0,0.0,0.0,0.428,-0.47200000000000000,-0.8260000000000000,192.0,0.0,0.0,0.0,0.0,0.0,0.0,0.0,0.0,0.0,1.6781404048491E+09,0.0,2023-03-06 14:06:44.849
82.0,-894.1144817011930,-3539.6893071757900,10751.144379513800,-13732.241241007,21503.562808461500,0.0,0.0,0.0,0.428,-0.47200000000000000,-0.8260000000000000,192.0,0.0,0.0,0.0,0.0,0.0,0.0,0.0,0.0,0.0,1.67814040485411E+09,0.0,2023-03-06 14:06:44.854
83.0,-889.3312083877570,-3538.437609486300,10765.024812820500,-13728.173223516100,21502.78049740560,0.0,0.0,0.0,0.428,-0.47200000000000000,-0.8260000000000000,192.0,0.0,0.0,0.0,0.0,0.0,0.0,0.0,0.0,0.0,1.67814040485812E+09,0.0,2023-03-06 14:06:44.858
84.0,-900.5741358487770,-3541.4327432433100,10728.256193191600,-13754.347116273300,21464.894290553800,0.0,0.0,0.0,0.428,-0.47200000000000000,-0.8260000000000000,192.0,0.0,0.0,0.0,0.0,0.0,0.0,0.0,0.0,0.0,1.67814040486215E+09,0.0,2023-03-06 14:06:44.862
85.0,-905.7150370734980,-3544.0031938556700,10710.821832516400,-13753.67656393960,21456.892366038800,0.0,0.0,0.0,0.428,-0.47200000000000000,-0.8260000000000000,192.0,0.0,0.0,0.0,0.0,0.0,0.0,0.0,0.0,0.0,1.6781404048652E+09,0.0,2023-03-06 14:06:44.865
86.0,-896.5508218468220,-3544.0031938556700,10749.803274846500,-13734.945802086100,21484.519122185600,0.0,0.0,0.0,0.428,-0.47200000000000000,-0.8260000000000000,192.0,0.0,0.0,0.0,0.0,0.0,0.0,0.0,0.0,0.0,1.67814040486919E+09,0.0,2023-03-06 14:06:44.869
87.0,-894.1368334456480,-3547.534769479610,10767.595263432900,-13723.501708925000,21503.898084628400,0.0,0.0,0.0,0.428,-0.47200000000000000,-0.8260000000000000,192.0,0.0,0.0,0.0,0.0,0.0,0.0,0.0,0.0,0.0,1.67814040487322E+09,0.0,2023-03-06 14:06:44.873
88.0,-907.1679004630930,-3553.2568160601600,10733.151225227300,-13710.448290163100,21496.276139769100,0.0,0.0,0.0,0.428,-0.47200000000000000,-0.8260000000000000,192.0,0.0,0.0,0.0,0.0,0.0,0.0,0.0,0.0,0.0,1.67814040487723E+09,0.0,2023-03-06 14:06:44.877
89.0,-916.9356127900620,-3556.028432372620,10704.138660924300,-13699.00419700200,21477.523026171100,0.0,0.0,0.0,0.424,-0.47800000000000000,-0.8260000000000000,192.0,13.0,64.0,241.0,16.0,230.0,48.0,0.0,0.0,0.0,1.67814040488128E+09,0.0,2023-03-06 14:06:44.881
90.0,-909.6489440976320,-3556.0954876059900,10740.303783453000,-13693.170391699100,21499.047756081600,0.0,0.0,0.0,0.424,-0.47800000000000000,-0.8260000000000000,192.0,0.0,0.0,0.0,0.0,0.0,0.0,0.0,0.0,0.0,1.67814040488628E+09,0.0,2023-03-06 14:06:44.886
91.0,-902.2058131940140,-3557.1907230843000,10764.331908742400,-13694.399737644200,21509.821296909000,0.0,0.0,0.0,0.424,-0.47800000000000000,-0.8260000000000000,192.0,0.0,0.0,0.0,0.0,0.0,0.0,0.0,0.0,0.0,1.67814040488928E+09,0.0,2023-03-06 14:06:44.889
92.0,-904.8656707841960,-3557.660109717860,10738.381533429800,-13690.421127131100,21496.16438104680,0.0,0.0,0.0,0.424,-0.47800000000000000,-0.8260000000000000,192.0,0.0,0.0,0.0,0.0,0.0,0.0,0.0,0.0,0.0,1.67814040489331E+09,0.0,2023-03-06 14:06:44.893
93.0,-913.3369819327570,-3556.5201707506400,10697.969579454600,-13678.217074658500,21483.848569851900,0.0,0.0,0.0,0.424,-0.47800000000000000,-0.8260000000000000,192.0,0.0,0.0,0.0,0.0,0.0,0.0,0.0,0.0,0.0,1.67814040489734E+09,0.0,2023-03-06 14:06:44.897
94.0,-908.1960807080370,-3556.4754672617300,10721.997704744100,-13679.960510726000,21495.627939179900,0.0,0.0,0.0,0.424,-0.47800000000000000,-0.8260000000000000,192.0,0.0,0.0,0.0,0.0,0.0,0.0,0.0,0.0,0.0,1.67814040490135E+09,0.0,2023-03-06 14:06:44.901
95.0,-902.9434207610390,-3557.7942201845900,10753.737181870600,-13674.394926356700,21513.64344521090,0.0,0.0,0.0,0.424,-0.47800000000000000,-0.8260000000000000,192.0,0.0,0.0,0.0,0.0,0.0,0.0,0.0,0.0,0.0,1.67814040490536E+09,0.0,2023-03-06 14:06:44.905
96.0,-912.4652638990000,-3558.934159151810,10740.974335786600,-13663.107295406700,21520.058395869500,0.0,0.0,0.0,0.424,-0.47800000000000000,-0.8260000000000000,192.0,0.0,0.0,0.0,0.0,0.0,0.0,0.0,0.0,0.0,1.67814040490937E+09,0.0,2023-03-06 14:06:44.909
97.0,-928.9161478181060,-3561.6834237198100,10697.522544565500,-13658.502836048900,21507.20614280770,0.0,0.0,0.0,0.424,-0.47800000000000000,-0.8260000000000000,192.0,0.0,0.0,0.0,0.0,0.0,0.0,0.0,0.0,0.0,1.67814040491441E+09,0.0,2023-03-06 14:06:44.914
98.0,-928.8714443291960,-3562.08575512001,10714.733387796100,-13661.319155850300,21511.743546932200,0.0,0.0,0.0,0.424,-0.47800000000000000,-0.8260000000000000,192.0,0.0,0.0,0.0,0.0,0.0,0.0,0.0,0.0,0.0,1.67814040491744E+09,0.0,2023-03-06 14:06:44.917
99.0,-910.5430138758440,-3559.247083574190,10752.820760347900,-13660.313327349800,21524.707558716200,0.0,0.0,0.0,0.418,-0.47600000000000000,-0.8240000000000000,192.0,13.0,16.0,241.0,32.0,230.0,64.0,0.0,0.0,0.0,1.67814040492041E+09,0.0,2023-03-06 14:06:44.920
100.0,-913.6052028662210,-3559.3588422964600,10751.949042314200,-13651.707905734500,21523.63467498240,0.0,0.0,0.0,0.418,-0.47600000000000000,-0.8240000000000000,192.0,0.0,0.0,0.0,0.0,0.0,0.0,0.0,0.0,0.0,1.67814040492544E+09,0.0,2023-03-06 14:06:44.925
101.0,-921.405961681123,-3562.3316243090200,10707.714940037100,-13660.64860351670,21492.05166006700,0.0,0.0,0.0,0.418,-0.47600000000000000,-0.8240000000000000,192.0,0.0,0.0,0.0,0.0,0.0,0.0,0.0,0.0,0.0,1.67814040492949E+09,0.0,2023-03-06 14:06:44.929
102.0,-908.956040019517,-3564.097412120990,10715.158070940700,-13667.689403020100,21484.474418696700,0.0,0.0,0.0,0.418,-0.47600000000000000,-0.8240000000000000,192.0,0.0,0.0,0.0,0.0,0.0,0.0,0.0,0.0,0.0,1.67814040493348E+09,0.0,2023-03-06 14:06:44.933
103.0,-897.6684090695870,-3560.901112663880,10754.430085948700,-13663.487275062500,21504.59098870650,0.0,0.0,0.0,0.418,-0.47600000000000000,-0.8240000000000000,192.0,0.0,0.0,0.0,0.0,0.0,0.0,0.0,0.0,0.0,1.67814040493755E+09,0.0,2023-03-06 14:06:44.937
104.0,-896.0143799798940,-3560.8117056860600,10762.36495523040,-13661.65443201710,21509.26250329760,0.0,0.0,0.0,0.418,-0.47600000000000000,-0.8240000000000000,192.0,0.0,0.0,0.0,0.0,0.0,0.0,0.0,0.0,0.0,1.67814040494162E+09,0.0,2023-03-06 14:06:44.941
105.0,-912.5323191323660,-3563.248045831690,10720.991876243600,-13666.728278008500,21492.029308322600,0.0,0.0,0.0,0.418,-0.47600000000000000,-0.8240000000000000,192.0,0.0,0.0,0.0,0.0,0.0,0.0,0.0,0.0,0.0,1.67814040494462E+09,0.0,2023-03-06 14:06:44.944
106.0,-915.7733220783860,-3565.818496444050,10711.827661016900,-13665.118952407700,21492.521046700600,0.0,0.0,0.0,0.418,-0.47600000000000000,-0.8240000000000000,192.0,0.0,0.0,0.0,0.0,0.0,0.0,0.0,0.0,0.0,1.6781404049486E+09,0.0,2023-03-06 14:06:44.948
107.0,-907.3467144187350,-3566.42199354434,10748.305707968000,-13661.028583172400,21510.894180642900,0.0,0.0,0.0,0.418,-0.47600000000000000,-0.8240000000000000,192.0,0.0,0.0,0.0,0.0,0.0,0.0,0.0,0.0,0.0,1.6781404049526E+09,0.0,2023-03-06 14:06:44.952
108.0,-902.3846271496570,-3563.605673742970,10763.817818619900,-13658.61459477120,21523.522916260100,0.0,0.0,0.0,0.418,-0.47600000000000000,-0.8240000000000000,192.0,0.0,0.0,0.0,0.0,0.0,0.0,0.0,0.0,0.0,1.67814040495763E+09,0.0,2023-03-06 14:06:44.957
109.0,-912.4876156434560,-3563.829191187520,10726.043370490500,-13653.60780401320,21512.615264965900,0.0,0.0,0.0,0.41600000000000000,-0.47800000000000000,-0.8280000000000000,192.0,13.0,0.0,241.0,16.0,230.0,32.0,0.0,0.0,0.0,1.67814040496162E+09,0.0,2023-03-06 14:06:44.961
110.0,-918.857862813218,-3565.3267580660300,10704.719806280100,-13647.997516154900,21504.680395684300,0.0,0.0,0.0,0.41600000000000000,-0.47800000000000000,-0.8280000000000000,192.0,0.0,0.0,0.0,0.0,0.0,0.0,0.0,0.0,0.0,1.67814040496564E+09,0.0,2023-03-06 14:06:44.965
111.0,-907.9949150079390,-3562.9127696648600,10741.421370675700,-13645.22589984250,21522.137108103900,0.0,0.0,0.0,0.41600000000000000,-0.47800000000000000,-0.8280000000000000,192.0,0.0,0.0,0.0,0.0,0.0,0.0,0.0,0.0,0.0,1.67814040496968E+09,0.0,2023-03-06 14:06:44.969
112.0,-903.3904556501460,-3561.1022783639800,10763.571949430900,-13645.583527753800,21529.22261109620,0.0,0.0,0.0,0.41600000000000000,-0.47800000000000000,-0.8280000000000000,192.0,0.0,0.0,0.0,0.0,0.0,0.0,0.0,0.0,0.0,1.67814040497268E+09,0.0,2023-03-06 14:06:44.972
113.0,-911.213566209503,-3559.4482492742800,10735.788731073000,-13641.694324218600,21521.60066623700,0.0,0.0,0.0,0.41600000000000000,-0.47800000000000000,-0.8280000000000000,192.0,0.0,0.0,0.0,0.0,0.0,0.0,0.0,0.0,0.0,1.67814040497671E+09,0.0,2023-03-06 14:06:44.976
114.0,-914.5216243888880,-3561.594016741990,10703.468108590600,-13643.88479517520,21513.129355088400,0.0,0.0,0.0,0.41600000000000000,-0.47800000000000000,-0.8280000000000000,192.0,0.0,0.0,0.0,0.0,0.0,0.0,0.0,0.0,0.0,1.67814040498074E+09,0.0,2023-03-06 14:06:44.980
115.0,-903.0104759944050,-3562.46573477575,10733.441797905200,-13648.086923132800,21527.725044217700,0.0,0.0,0.0,0.41600000000000000,-0.47800000000000000,-0.8280000000000000,192.0,0.0,0.0,0.0,0.0,0.0,0.0,0.0,0.0,0.0,1.67814040498571E+09,0.0,2023-03-06 14:06:44.985
116.0,-896.3496561467240,-3558.8224004295400,10760.755629629600,-13643.303649819300,21538.92326818980,0.0,0.0,0.0,0.41600000000000000,-0.47800000000000000,-0.8280000000000000,192.0,0.0,0.0,0.0,0.0,0.0,0.0,0.0,0.0,0.0,1.67814040498973E+09,0.0,2023-03-06 14:06:44.989
117.0,-905.6703335845870,-3559.7835254411100,10739.700286352700,-13642.163710852100,21529.40142505190,0.0,0.0,0.0,0.41600000000000000,-0.47800000000000000,-0.8280000000000000,192.0,0.0,0.0,0.0,0.0,0.0,0.0,0.0,0.0,0.0,1.67814040499382E+09,0.0,2023-03-06 14:06:44.993
118.0,-913.7169615884970,-3559.0459178740900,10705.099785935900,-13636.240498571500,21515.722157445200,0.0,0.0,0.0,0.41600000000000000,-0.47800000000000000,-0.8280000000000000,192.0,0.0,0.0,0.0,0.0,0.0,0.0,0.0,0.0,0.0,1.67814040499785E+09,0.0,2023-03-06 14:06:44.997
119.0,-905.6926853290420,-3558.1965515847900,10733.330039182900,-13637.671010216600,21517.91262840180,0.0,0.0,0.0,0.424,-0.47600000000000000,-0.8180000000000000,192.0,13.0,64.0,241.0,32.0,230.0,112.0,0.0,0.0,0.0,1.67814040500079E+09,0.0,2023-03-06 14:06:45.000
120.0,-895.6791038130650,-3555.2014178277800,10765.673013409700,-13639.816777684300,21529.49083202970,0.0,0.0,0.0,0.424,-0.47600000000000000,-0.8180000000000000,192.0,0.0,0.0,0.0,0.0,0.0,0.0,0.0,0.0,0.0,1.67814040500481E+09,0.0,2023-03-06 14:06:45.004
121.0,-899.1883276925480,-3554.5532172385700,10753.781885359500,-13640.397923040100,21534.02823615410,0.0,0.0,0.0,0.424,-0.47600000000000000,-0.8180000000000000,192.0,0.0,0.0,0.0,0.0,0.0,0.0,0.0,0.0,0.0,1.67814040500884E+09,0.0,2023-03-06 14:06:45.008
122.0,-909.6936475865420,-3553.793257927090,10709.950114482700,-13645.829396942800,21511.877657398900,0.0,0.0,0.0,0.424,-0.47600000000000000,-0.8180000000000000,192.0,0.0,0.0,0.0,0.0,0.0,0.0,0.0,0.0,0.0,1.67814040501285E+09,0.0,2023-03-06 14:06:45.012
123.0,-904.5527463618220,-3550.731068936710,10724.165823956200,-13643.102484119200,21520.505430758600,0.0,0.0,0.0,0.424,-0.47600000000000000,-0.8180000000000000,192.0,0.0,0.0,0.0,0.0,0.0,0.0,0.0,0.0,0.0,1.67814040501688E+09,0.0,2023-03-06 14:06:45.016
124.0,-892.8851357561510,-3548.5853014690000,10757.916958083700,-13634.65352471510,21546.969896193700,0.0,0.0,0.0,0.424,-0.47600000000000000,-0.8180000000000000,192.0,0.0,0.0,0.0,0.0,0.0,0.0,0.0,0.0,0.0,1.67814040502196E+09,0.0,2023-03-06 14:06:45.021
125.0,-894.3379991457460,-3549.7475921806800,10754.541844671000,-13633.804158425800,21544.801776981600,0.0,0.0,0.0,0.424,-0.47600000000000000,-0.8180000000000000,192.0,0.0,0.0,0.0,0.0,0.0,0.0,0.0,0.0,0.0,1.67814040502594E+09,0.0,2023-03-06 14:06:45.025
126.0,-910.9453452760390,-3552.8991881488800,10709.503079593500,-13632.239536314000,21527.83680294000,0.0,0.0,0.0,0.424,-0.47600000000000000,-0.8180000000000000,192.0,0.0,0.0,0.0,0.0,0.0,0.0,0.0,0.0,0.0,1.67814040502893E+09,0.0,2023-03-06 14:06:45.028
127.0,-915.6168598671990,-3553.390926526900,10710.464204605100,-13631.680742702600,21528.84263144050,0.0,0.0,0.0,0.424,-0.47600000000000000,-0.8180000000000000,192.0,0.0,0.0,0.0,0.0,0.0,0.0,0.0,0.0,0.0,1.67814040503294E+09,0.0,2023-03-06 14:06:45.032
128.0,-910.0736272422820,-3550.41814451434,10748.08219052340,-13627.009228111400,21549.808567739600,0.0,0.0,0.0,0.424,-0.47600000000000000,-0.8180000000000000,192.0,0.0,0.0,0.0,0.0,0.0,0.0,0.0,0.0,0.0,1.67814040503698E+09,0.0,2023-03-06 14:06:45.036
129.0,-899.7694730483860,-3550.373441025430,10754.9888795601,-13620.862498386200,21560.962088222800,0.0,0.0,0.0,0.422,-0.47400000000000000,-0.8200000000000000,192.0,13.0,48.0,241.0,48.0,230.0,96.0,0.0,0.0,0.0,1.678140405041E+09,0.0,2023-03-06 14:06:45.040
130.0,-904.1727667060810,-3555.6261009724300,10710.106576693800,-13632.686571203100,21526.763919206100,0.0,0.0,0.0,0.422,-0.47400000000000000,-0.8200000000000000,192.0,0.0,0.0,0.0,0.0,0.0,0.0,0.0,0.0,0.0,1.67814040504501E+09,0.0,2023-03-06 14:06:45.045
131.0,-905.2680021843910,-3557.861275417960,10700.16005041120,-13645.516472520400,21507.58612246350,0.0,0.0,0.0,0.422,-0.47400000000000000,-0.8200000000000000,192.0,0.0,0.0,0.0,0.0,0.0,0.0,0.0,0.0,0.0,1.67814040505001E+09,0.0,2023-03-06 14:06:45.050
132.0,-892.4604526115000,-3556.1401910949000,10739.074437507900,-13640.777902695900,21521.46655577020,0.0,0.0,0.0,0.422,-0.47400000000000000,-0.8200000000000000,192.0,0.0,0.0,0.0,0.0,0.0,0.0,0.0,0.0,0.0,1.67814040505406E+09,0.0,2023-03-06 14:06:45.054
133.0,-892.7733770338750,-3556.8554469174700,10754.072458037400,-13643.594222497300,21519.8795819139,0.0,0.0,0.0,0.422,-0.47400000000000000,-0.8200000000000000,192.0,0.0,0.0,0.0,0.0,0.0,0.0,0.0,0.0,0.0,1.67814040505706E+09,0.0,2023-03-06 14:06:45.057
134.0,-904.9774295064720,-3560.4317260303200,10715.716864552100,-13641.917841663100,21503.83102939500,0.0,0.0,0.0,0.422,-0.47400000000000000,-0.8200000000000000,192.0,0.0,0.0,0.0,0.0,0.0,0.0,0.0,0.0,0.0,1.67814040506105E+09,0.0,2023-03-06 14:06:45.061
135.0,-912.3535051767240,-3563.9856533987100,10693.610989285800,-13642.02960038540,21499.964177604200,0.0,0.0,0.0,0.422,-0.47400000000000000,-0.8200000000000000,192.0,0.0,0.0,0.0,0.0,0.0,0.0,0.0,0.0,0.0,1.67814040506609E+09,0.0,2023-03-06 14:06:45.066
136.0,-903.0998829722270,-3562.577493498030,10730.848995548400,-13648.064571388300,21515.20806732270,0.0,0.0,0.0,0.422,-0.47400000000000000,-0.8200000000000000,192.0,0.0,0.0,0.0,0.0,0.0,0.0,0.0,0.0,0.0,1.67814040507016E+09,0.0,2023-03-06 14:06:45.070
137.0,-897.7354643029530,-3559.537656252110,10754.765362115500,-13649.115103377700,21529.02144539610,0.0,0.0,0.0,0.422,-0.47400000000000000,-0.8200000000000000,192.0,0.0,0.0,0.0,0.0,0.0,0.0,0.0,0.0,0.0,1.67814040507316E+09,0.0,2023-03-06 14:06:45.073
138.0,-907.3020109298240,-3559.4258975298300,10729.26202169200,-13646.410542298600,21520.796003436600,0.0,0.0,0.0,0.422,-0.47400000000000000,-0.8200000000000000,192.0,0.0,0.0,0.0,0.0,0.0,0.0,0.0,0.0,0.0,1.67814040507713E+09,0.0,2023-03-06 14:06:45.077
139.0,-917.2261854679810,-3561.281092319620,10698.617780043800,-13640.733199207000,21505.909741629300,0.0,0.0,0.0,0.428,-0.47400000000000000,-0.8240000000000000,192.0,13.0,96.0,241.0,48.0,230.0,64.0,0.0,0.0,0.0,1.67814040508216E+09,0.0,2023-03-06 14:06:45.082
140.0,-912.1299877321710,-3562.957473153770,10733.017114760500,-13640.062646873300,21517.867924912900,0.0,0.0,0.0,0.428,-0.47400000000000000,-0.8240000000000000,192.0,0.0,0.0,0.0,0.0,0.0,0.0,0.0,0.0,0.0,1.67814040508516E+09,0.0,2023-03-06 14:06:45.085
141.0,-905.1562434621150,-3562.3539760534700,10760.822684862900,-13640.286164317900,21534.296457087600,0.0,0.0,0.0,0.428,-0.47400000000000000,-0.8240000000000000,192.0,0.0,0.0,0.0,0.0,0.0,0.0,0.0,0.0,0.0,1.67814040508924E+09,0.0,2023-03-06 14:06:45.089
142.0,-913.4487406550340,-3564.566798754550,10738.001553774100,-13644.465940531000,21522.964122648700,0.0,0.0,0.0,0.428,-0.47400000000000000,-0.8240000000000000,192.0,0.0,0.0,0.0,0.0,0.0,0.0,0.0,0.0,0.0,1.67814040509321E+09,0.0,2023-03-06 14:06:45.093
143.0,-928.1561885066260,-3568.701871478780,10697.299027121000,-13644.041257386400,21508.9272271308,0.0,0.0,0.0,0.428,-0.47400000000000000,-0.8240000000000000,192.0,0.0,0.0,0.0,0.0,0.0,0.0,0.0,0.0,0.0,1.67814040509726E+09,0.0,2023-03-06 14:06:45.097
144.0,-919.5284151468770,-3569.7747552126400,10720.902469265800,-13642.297821318800,21528.39559655140,0.0,0.0,0.0,0.428,-0.47400000000000000,-0.8240000000000000,192.0,0.0,0.0,0.0,0.0,0.0,0.0,0.0,0.0,0.0,1.6781404051013E+09,0.0,2023-03-06 14:06:45.101
145.0,-908.8442812972410,-3567.8972086783900,10753.826588848400,-13643.013077141400,21538.36447457840,0.0,0.0,0.0,0.428,-0.47400000000000000,-0.8240000000000000,192.0,0.0,0.0,0.0,0.0,0.0,0.0,0.0,0.0,0.0,1.67814040510529E+09,0.0,2023-03-06 14:06:45.105
146.0,-909.4254266530790,-3567.6513394893800,10745.332925955400,-13640.286164317900,21531.636599497400,0.0,0.0,0.0,0.428,-0.47400000000000000,-0.8240000000000000,192.0,0.0,0.0,0.0,0.0,0.0,0.0,0.0,0.0,0.0,1.67814040510829E+09,0.0,2023-03-06 14:06:45.108
147.0,-916.1309499896710,-3565.3044063215700,10702.864611490300,-13645.158844609100,21513.554038233000,0.0,0.0,0.0,0.428,-0.47400000000000000,-0.8240000000000000,192.0,0.0,0.0,0.0,0.0,0.0,0.0,0.0,0.0,0.0,1.6781404051123E+09,0.0,2023-03-06 14:06:45.112
148.0,-911.2806214428690,-3563.0021766426800,10717.706169808600,-13644.823568442300,21525.35575930550,0.0,0.0,0.0,0.428,-0.47400000000000000,-0.8240000000000000,192.0,0.0,0.0,0.0,0.0,0.0,0.0,0.0,0.0,0.0,1.67814040512435E+09,0.0,2023-03-06 14:06:45.124
149.0,-901.311743415802,-3557.1907230843000,10755.011231304600,-13639.257984072900,21540.398483323900,0.0,0.0,0.0,0.428,-0.47400000000000000,-0.8240000000000000,192.0,0.0,0.0,0.0,0.0,0.0,0.0,0.0,0.0,0.0,1.67814040512737E+09,0.0,2023-03-06 14:06:45.127
150.0,-903.1222347166820,-3556.050784117080,10753.088981281400,-13641.850786429700,21538.297419345100,0.0,0.0,0.0,0.42,-0.47200000000000000,-0.8320000000000000,192.0,13.0,32.0,241.0,64.0,230.0,0.0,0.0,0.0,0.0,1.67814040513037E+09,0.0,2023-03-06 14:06:45.130
151.0,-911.6382493541540,-3556.4531155172700,10706.239724903100,-13639.213280584000,21521.175983092300,0.0,0.0,0.0,0.42,-0.47200000000000000,-0.8320000000000000,192.0,0.0,0.0,0.0,0.0,0.0,0.0,0.0,0.0,0.0,1.67814040513339E+09,0.0,2023-03-06 14:06:45.133
152.0,-905.9385545180510,-3554.41910677184,10704.362178368800,-13639.325039306300,21517.644407468400,0.0,0.0,0.0,0.42,-0.47200000000000000,-0.8320000000000000,192.0,0.0,0.0,0.0,0.0,0.0,0.0,0.0,0.0,0.0,1.6781404051364E+09,0.0,2023-03-06 14:06:45.136
153.0,-896.9084497581070,-3552.407449770860,10741.555481142500,-13643.035428885900,21528.797927951600,0.0,0.0,0.0,0.42,-0.47200000000000000,-0.8320000000000000,192.0,0.0,0.0,0.0,0.0,0.0,0.0,0.0,0.0,0.0,1.67814040514051E+09,0.0,2023-03-06 14:06:45.140
154.0,-899.1212724591820,-3553.9050166493700,10749.691516124200,-13647.192853354600,21531.055454141600,0.0,0.0,0.0,0.42,-0.47200000000000000,-0.8320000000000000,192.0,0.0,0.0,0.0,0.0,0.0,0.0,0.0,0.0,0.0,1.67814040514352E+09,0.0,2023-03-06 14:06:45.143
155.0,-914.7674935778970,-3554.1061823494700,10707.849050503900,-13646.410542298600,21511.54238123210,0.0,0.0,0.0,0.42,-0.47200000000000000,-0.8320000000000000,192.0,0.0,0.0,0.0,0.0,0.0,0.0,0.0,0.0,0.0,1.67814040514646E+09,0.0,2023-03-06 14:06:45.146
156.0,-914.4322174110670,-3553.6144439714500,10694.393300341800,-13643.08013237480,21510.178924820300,0.0,0.0,0.0,0.42,-0.47200000000000000,-0.8320000000000000,192.0,0.0,0.0,0.0,0.0,0.0,0.0,0.0,0.0,0.0,1.67814040514946E+09,0.0,2023-03-06 14:06:45.149
157.0,-895.5002898574220,-3551.8486561594800,10734.715847339100,-13647.572833010300,21526.07101512800,0.0,0.0,0.0,0.42,-0.47200000000000000,-0.8320000000000000,192.0,0.0,0.0,0.0,0.0,0.0,0.0,0.0,0.0,0.0,1.67814040515358E+09,0.0,2023-03-06 14:06:45.153
158.0,-893.7345020454530,-3550.775772425630,10754.944176071200,-13647.058742887800,21532.97770416470,0.0,0.0,0.0,0.42,-0.47200000000000000,-0.8320000000000000,192.0,0.0,0.0,0.0,0.0,0.0,0.0,0.0,0.0,0.0,1.67814040515753E+09,0.0,2023-03-06 14:06:45.157
159.0,-906.8326242962630,-3552.318042793040,10722.780015800000,-13649.740952222500,21513.151706832900,0.0,0.0,0.0,0.42,-0.47200000000000000,-0.8320000000000000,192.0,0.0,0.0,0.0,0.0,0.0,0.0,0.0,0.0,0.0,1.67814040516163E+09,0.0,2023-03-06 14:06:45.161
160.0,-912.957002277017,-3552.407449770860,10701.523506823000,-13653.428990057600,21503.383994505900,0.0,0.0,0.0,0.422,-0.47400000000000000,-0.8240000000000000,192.0,13.0,48.0,241.0,48.0,230.0,64.0,0.0,0.0,0.0,1.6781404051646E+09,0.0,2023-03-06 14:06:45.164
161.0,-909.8724615421850,-3550.373441025430,10738.023905518500,-13651.484388290000,21522.762956948600,0.0,0.0,0.0,0.422,-0.47400000000000000,-0.8240000000000000,192.0,0.0,0.0,0.0,0.0,0.0,0.0,0.0,0.0,0.0,1.67814040516862E+09,0.0,2023-03-06 14:06:45.168
162.0,-902.5857928497550,-3548.831170658010,10762.02967906350,-13645.762341709400,21533.000055909200,0.0,0.0,0.0,0.422,-0.47400000000000000,-0.8240000000000000,192.0,0.0,0.0,0.0,0.0,0.0,0.0,0.0,0.0,0.0,1.67814040517262E+09,0.0,2023-03-06 14:06:45.172
163.0,-902.3846271496570,-3552.340394537500,10733.352390927400,-13644.778864953400,21517.73381444620,0.0,0.0,0.0,0.422,-0.47400000000000000,-0.8240000000000000,192.0,0.0,0.0,0.0,0.0,0.0,0.0,0.0,0.0,0.0,1.67814040517662E+09,0.0,2023-03-06 14:06:45.176
164.0,-908.956040019517,-3554.8214381720400,10697.679006776700,-13645.963507409500,21502.579331705500,0.0,0.0,0.0,0.422,-0.47400000000000000,-0.8240000000000000,192.0,0.0,0.0,0.0,0.0,0.0,0.0,0.0,0.0,0.0,1.67814040518164E+09,0.0,2023-03-06 14:06:45.181
165.0,-903.4798626279670,-3557.1460195953900,10727.049198991000,-13642.834263185800,21525.422814538800,0.0,0.0,0.0,0.422,-0.47400000000000000,-0.8240000000000000,192.0,0.0,0.0,0.0,0.0,0.0,0.0,0.0,0.0,0.0,1.67814040518562E+09,0.0,2023-03-06 14:06:45.185
166.0,-896.6402288246430,-3556.2072463282600,10758.118123783800,-13642.856614930200,21541.40431182440,0.0,0.0,0.0,0.422,-0.47400000000000000,-0.8240000000000000,192.0,0.0,0.0,0.0,0.0,0.0,0.0,0.0,0.0,0.0,1.67814040518965E+09,0.0,2023-03-06 14:06:45.189
167.0,-902.6081445942100,-3559.537656252110,10740.773170086500,-13641.917841663100,21530.02727389660,0.0,0.0,0.0,0.422,-0.47400000000000000,-0.8240000000000000,192.0,0.0,0.0,0.0,0.0,0.0,0.0,0.0,0.0,0.0,1.6781404051927E+09,0.0,2023-03-06 14:06:45.192
168.0,-915.0580662558160,-3561.6834237198100,10698.371910854800,-13636.59812648270,21512.905837643800,0.0,0.0,0.0,0.422,-0.47400000000000000,-0.8240000000000000,192.0,0.0,0.0,0.0,0.0,0.0,0.0,0.0,0.0,0.0,1.67814040519669E+09,0.0,2023-03-06 14:06:45.196
169.0,-914.5886796222540,-3563.739784209700,10716.677989563700,-13640.286164317900,21517.823221424000,0.0,0.0,0.0,0.422,-0.47400000000000000,-0.8240000000000000,192.0,0.0,0.0,0.0,0.0,0.0,0.0,0.0,0.0,0.0,1.67814040520072E+09,0.0,2023-03-06 14:06:45.200
170.0,-906.98908650745,-3563.248045831690,10749.55740565750,-13647.617536499200,21524.48404127170,0.0,0.0,0.0,0.43,-0.47400000000000000,-0.8200000000000000,192.0,13.0,112.0,241.0,48.0,230.0,96.0,0.0,0.0,0.0,1.67814040520474E+09,0.0,2023-03-06 14:06:45.204
171.0,-912.4205604100900,-3565.729089466230,10745.779960844500,-13652.087885390300,21517.085613857000,0.0,0.0,0.0,0.43,-0.47400000000000000,-0.8200000000000000,192.0,0.0,0.0,0.0,0.0,0.0,0.0,0.0,0.0,0.0,1.67814040520874E+09,0.0,2023-03-06 14:06:45.208
172.0,-923.9317088045730,-3568.031319145120,10704.004550457500,-13652.423161557100,21493.213950778700,0.0,0.0,0.0,0.43,-0.47400000000000000,-0.8200000000000000,192.0,0.0,0.0,0.0,0.0,0.0,0.0,0.0,0.0,0.0,1.6781404052138E+09,0.0,2023-03-06 14:06:45.213
173.0,-917.6285168681760,-3567.673691233840,10714.755739540500,-13649.56213826680,21499.383032248400,0.0,0.0,0.0,0.43,-0.47400000000000000,-0.8200000000000000,192.0,0.0,0.0,0.0,0.0,0.0,0.0,0.0,0.0,0.0,1.6781404052178E+09,0.0,2023-03-06 14:06:45.217
174.0,-906.8549760407180,-3564.9691301547400,10751.546710914000,-13653.674859246600,21512.279988799100,0.0,0.0,0.0,0.43,-0.47400000000000000,-0.8200000000000000,192.0,0.0,0.0,0.0,0.0,0.0,0.0,0.0,0.0,0.0,1.67814040522083E+09,0.0,2023-03-06 14:06:45.220
175.0,-910.0289237533720,-3567.2713598336400,10751.837283591900,-13649.539786522400,21511.676491698800,0.0,0.0,0.0,0.43,-0.47400000000000000,-0.8200000000000000,192.0,0.0,0.0,0.0,0.0,0.0,0.0,0.0,0.0,0.0,1.67814040522486E+09,0.0,2023-03-06 14:06:45.224
176.0,-925.3398687052570,-3569.350072067990,10705.479765591600,-13641.98489689650,21493.459819967700,0.0,0.0,0.0,0.43,-0.47400000000000000,-0.8200000000000000,192.0,0.0,0.0,0.0,0.0,0.0,0.0,0.0,0.0,0.0,1.67814040522884E+09,0.0,2023-03-06 14:06:45.228
177.0,-922.9258803040840,-3569.8865139349100,10703.870439990800,-13641.917841663100,21497.68429966980,0.0,0.0,0.0,0.43,-0.47400000000000000,-0.8200000000000000,192.0,0.0,0.0,0.0,0.0,0.0,0.0,0.0,0.0,0.0,1.67814040523485E+09,0.0,2023-03-06 14:06:45.234
178.0,-911.0571039983160,-3565.796144699590,10741.376667186800,-13640.50968176240,21519.16432609130,0.0,0.0,0.0,0.43,-0.47400000000000000,-0.8200000000000000,192.0,0.0,0.0,0.0,0.0,0.0,0.0,0.0,0.0,0.0,1.67814040523791E+09,0.0,2023-03-06 14:06:45.237
179.0,-908.7548743194190,-3564.7456127101900,10752.41842894770,-13642.230766085500,21524.014654638100,0.0,0.0,0.0,0.43,-0.47400000000000000,-0.8200000000000000,192.0,0.0,0.0,0.0,0.0,0.0,0.0,0.0,0.0,0.0,1.67814040524187E+09,0.0,2023-03-06 14:06:45.241
180.0,-918.2320139684700,-3566.153772610880,10712.945248239700,-13646.857577187700,21502.221703794200,0.0,0.0,0.0,0.428,-0.47800000000000000,-0.8200000000000000,192.0,13.0,96.0,241.0,16.0,230.0,96.0,0.0,0.0,0.0,1.67814040524599E+09,0.0,2023-03-06 14:06:45.245
181.0,-922.6129558817100,-3567.2043046002800,10696.851992231800,-13651.350277823200,21494.465648468200,0.0,0.0,0.0,0.428,-0.47800000000000000,-0.8200000000000000,192.0,0.0,0.0,0.0,0.0,0.0,0.0,0.0,0.0,0.0,1.67814040524891E+09,0.0,2023-03-06 14:06:45.248
182.0,-912.7334848324640,-3566.08671737751,10730.871347292800,-13651.596147012300,21511.184753320800,0.0,0.0,0.0,0.428,-0.47800000000000000,-0.8200000000000000,192.0,0.0,0.0,0.0,0.0,0.0,0.0,0.0,0.0,0.0,1.67814040525294E+09,0.0,2023-03-06 14:06:45.252
183.0,-903.3234004167800,-3563.7174324652500,10747.992783545600,-13652.803141212800,21514.64927371140,0.0,0.0,0.0,0.428,-0.47800000000000000,-0.8200000000000000,192.0,0.0,0.0,0.0,0.0,0.0,0.0,0.0,0.0,0.0,1.67814040525699E+09,0.0,2023-03-06 14:06:45.256
184.0,-916.2203569674920,-3565.483220277220,10713.794614529000,-13650.232690600500,21498.15368630330,0.0,0.0,0.0,0.428,-0.47800000000000000,-0.8200000000000000,192.0,0.0,0.0,0.0,0.0,0.0,0.0,0.0,0.0,0.0,1.67814040526097E+09,0.0,2023-03-06 14:06:45.260
185.0,-925.5857378942650,-3567.8748569339300,10687.68777700520,-13642.163710852100,21496.9243403583,0.0,0.0,0.0,0.428,-0.47800000000000000,-0.8200000000000000,192.0,0.0,0.0,0.0,0.0,0.0,0.0,0.0,0.0,0.0,1.67814040526502E+09,0.0,2023-03-06 14:06:45.265
186.0,-914.4992726444330,-3566.9137319223600,10723.562326855900,-13646.231728343000,21516.59387547900,0.0,0.0,0.0,0.428,-0.47800000000000000,-0.8200000000000000,192.0,0.0,0.0,0.0,0.0,0.0,0.0,0.0,0.0,0.0,1.67814040526902E+09,0.0,2023-03-06 14:06:45.269
187.0,-910.8559382982180,-3566.310234822060,10747.545748656500,-13647.304612076800,21534.318808832000,0.0,0.0,0.0,0.428,-0.47800000000000000,-0.8200000000000000,192.0,0.0,0.0,0.0,0.0,0.0,0.0,0.0,0.0,0.0,1.67814040527404E+09,0.0,2023-03-06 14:06:45.274
188.0,-916.5332813898660,-3568.321891823040,10723.003533244600,-13645.784693453900,21522.852363926500,0.0,0.0,0.0,0.428,-0.47800000000000000,-0.8200000000000000,192.0,0.0,0.0,0.0,0.0,0.0,0.0,0.0,0.0,0.0,1.67814040527704E+09,0.0,2023-03-06 14:06:45.277
189.0,-924.1105227602150,-3570.4453075462900,10688.939474694700,-13640.353219551200,21506.26736954060,0.0,0.0,0.0,0.428,-0.47800000000000000,-0.8200000000000000,192.0,0.0,0.0,0.0,0.0,0.0,0.0,0.0,0.0,0.0,1.67814040528112E+09,0.0,2023-03-06 14:06:45.281
190.0,-923.7528948489300,-3573.4627930477600,10716.633286074800,-13635.257021815400,21524.75226220520,0.0,0.0,0.0,0.426,-0.47800000000000000,-0.8220000000000000,192.0,13.0,80.0,241.0,16.0,230.0,80.0,0.0,0.0,0.0,1.67814040528508E+09,0.0,2023-03-06 14:06:45.285
191.0,-919.6401738691540,-3570.5570662685700,10748.08219052340,-13635.346428793200,21531.390730308400,0.0,0.0,0.0,0.426,-0.47800000000000000,-0.8220000000000000,192.0,0.0,0.0,0.0,0.0,0.0,0.0,0.0,0.0,0.0,1.67814040528913E+09,0.0,2023-03-06 14:06:45.289
192.0,-917.248537212436,-3565.6173307439500,10734.000591516600,-13635.748760193400,21515.856267911900,0.0,0.0,0.0,0.426,-0.47800000000000000,-0.8220000000000000,192.0,0.0,0.0,0.0,0.0,0.0,0.0,0.0,0.0,0.0,1.67814040529314E+09,0.0,2023-03-06 14:06:45.293
193.0,-918.567290135299,-3565.483220277220,10693.812154985900,-13637.782768938900,21499.69595667080,0.0,0.0,0.0,0.426,-0.47800000000000000,-0.8220000000000000,192.0,0.0,0.0,0.0,0.0,0.0,0.0,0.0,0.0,0.0,1.67814040529714E+09,0.0,2023-03-06 14:06:45.297
194.0,-908.6654673415980,-3561.8175341865500,10713.079358706400,-13643.326001563800,21511.430622509800,0.0,0.0,0.0,0.426,-0.47800000000000000,-0.8220000000000000,192.0,0.0,0.0,0.0,0.0,0.0,0.0,0.0,0.0,0.0,1.67814040530116E+09,0.0,2023-03-06 14:06:45.301
195.0,-901.2893916713470,-3560.0070428856700,10744.908242810800,-13641.023771884900,21526.428643039300,0.0,0.0,0.0,0.426,-0.47800000000000000,-0.8220000000000000,192.0,0.0,0.0,0.0,0.0,0.0,0.0,0.0,0.0,0.0,1.67814040530522E+09,0.0,2023-03-06 14:06:45.305
196.0,-901.3564469047130,-3561.839885931000,10740.639059619800,-13641.001420140400,21520.77365169210,0.0,0.0,0.0,0.426,-0.47800000000000000,-0.8220000000000000,192.0,0.0,0.0,0.0,0.0,0.0,0.0,0.0,0.0,0.0,1.67814040530819E+09,0.0,2023-03-06 14:06:45.308
197.0,-917.762627334908,-3564.2762260766300,10699.02011144400,-13633.871213659200,21504.21100905070,0.0,0.0,0.0,0.426,-0.47800000000000000,-0.8220000000000000,192.0,0.0,0.0,0.0,0.0,0.0,0.0,0.0,0.0,0.0,1.67814040531427E+09,0.0,2023-03-06 14:06:45.314
198.0,-912.666429599098,-3564.186819098810,10709.45837610460,-13627.277449044900,21515.409233022800,0.0,0.0,0.0,0.426,-0.47800000000000000,-0.8220000000000000,192.0,0.0,0.0,0.0,0.0,0.0,0.0,0.0,0.0,0.0,1.67814040531723E+09,0.0,2023-03-06 14:06:45.317
199.0,-899.3000864148240,-3560.6552434748700,10745.668202122200,-13630.138472335200,21535.346989077000,0.0,0.0,0.0,0.426,-0.47800000000000000,-0.8220000000000000,192.0,0.0,0.0,0.0,0.0,0.0,0.0,0.0,0.0,0.0,1.67814040532123E+09,0.0,2023-03-06 14:06:45.321
200.0,-900.4176736375900,-3560.208208585760,10749.244481235100,-13633.468882259000,21536.26341059960,0.0,0.0,0.0,0.424,-0.47600000000000000,-0.8200000000000000,192.0,13.0,64.0,241.0,32.0,230.0,96.0,0.0,0.0,0.0,1.67814040532528E+09,0.0,2023-03-06 14:06:45.325
201.0,-913.8063685663190,-3561.839885931000,10706.731463281100,-13638.855652672700,21514.515163244600,0.0,0.0,0.0,0.424,-0.47600000000000000,-0.8200000000000000,192.0,0.0,0.0,0.0,0.0,0.0,0.0,0.0,0.0,0.0,1.6781404053283E+09,0.0,2023-03-06 14:06:45.328
202.0,-913.6722580995870,-3562.6892522203000,10702.574038812400,-13640.956716651500,21521.31009355900,0.0,0.0,0.0,0.424,-0.47600000000000000,-0.8200000000000000,192.0,0.0,0.0,0.0,0.0,0.0,0.0,0.0,0.0,0.0,1.67814040533229E+09,0.0,2023-03-06 14:06:45.332
203.0,-903.5469178613330,-3559.671766718840,10740.370838686300,-13642.521338763400,21534.497622787700,0.0,0.0,0.0,0.424,-0.47600000000000000,-0.8200000000000000,192.0,0.0,0.0,0.0,0.0,0.0,0.0,0.0,0.0,0.0,1.6781404053363E+09,0.0,2023-03-06 14:06:45.336
204.0,-903.9939527504390,-3561.1693335973400,10751.524359169500,-13645.136492864700,21533.40238730940,0.0,0.0,0.0,0.424,-0.47600000000000000,-0.8200000000000000,192.0,0.0,0.0,0.0,0.0,0.0,0.0,0.0,0.0,0.0,1.67814040534036E+09,0.0,2023-03-06 14:06:45.340
205.0,-917.5167581459000,-3563.113935364950,10711.760605783500,-13639.950888151000,21524.372282549400,0.0,0.0,0.0,0.424,-0.47600000000000000,-0.8200000000000000,192.0,0.0,0.0,0.0,0.0,0.0,0.0,0.0,0.0,0.0,1.67814040534535E+09,0.0,2023-03-06 14:06:45.345
206.0,-921.6518308701310,-3564.6562057323700,10697.746062010100,-13646.008210898400,21518.046738868600,0.0,0.0,0.0,0.424,-0.47600000000000000,-0.8200000000000000,192.0,0.0,0.0,0.0,0.0,0.0,0.0,0.0,0.0,0.0,1.67814040534938E+09,0.0,2023-03-06 14:06:45.349
207.0,-908.0172667523940,-3564.6562057323700,10736.07930375090,-13648.355144066200,21522.6288464819,0.0,0.0,0.0,0.424,-0.47600000000000000,-0.8200000000000000,192.0,0.0,0.0,0.0,0.0,0.0,0.0,0.0,0.0,0.0,1.67814040535338E+09,0.0,2023-03-06 14:06:45.353
208.0,-898.9871619924500,-3563.2256940872300,10754.36303071540,-13650.903242934100,21520.103099358500,0.0,0.0,0.0,0.424,-0.47600000000000000,-0.8200000000000000,192.0,0.0,0.0,0.0,0.0,0.0,0.0,0.0,0.0,0.0,1.67814040535645E+09,0.0,2023-03-06 14:06:45.356
209.0,-907.1231969741820,-3562.733955709210,10720.92482101020,-13649.964469667000,21508.569599219500,0.0,0.0,0.0,0.424,-0.47600000000000000,-0.8200000000000000,192.0,0.0,0.0,0.0,0.0,0.0,0.0,0.0,0.0,0.0,1.67814040536044E+09,0.0,2023-03-06 14:06:45.360
210.0,-915.5051011449220,-3563.51626676515,10693.58863754140,-13643.482463775000,21504.613340450900,0.0,0.0,0.0,0.428,-0.47800000000000000,-0.8220000000000000,192.0,13.0,96.0,241.0,16.0,230.0,80.0,0.0,0.0,0.0,1.67814040536443E+09,0.0,2023-03-06 14:06:45.364
211.0,-909.8724615421850,-3564.2538743321700,10728.412655402700,-13641.180234096100,21521.06422437000,0.0,0.0,0.0,0.428,-0.47800000000000000,-0.8220000000000000,192.0,0.0,0.0,0.0,0.0,0.0,0.0,0.0,0.0,0.0,1.67814040536845E+09,0.0,2023-03-06 14:06:45.368
212.0,-908.4195981525900,-3560.7446504526900,10754.608899904400,-13638.565079994800,21540.10791064600,0.0,0.0,0.0,0.428,-0.47800000000000000,-0.8220000000000000,192.0,0.0,0.0,0.0,0.0,0.0,0.0,0.0,0.0,0.0,1.67814040537248E+09,0.0,2023-03-06 14:06:45.372
213.0,-927.1056565172260,-3560.2305603302200,10731.966582771100,-13647.058742887800,21526.294532572600,0.0,0.0,0.0,0.428,-0.47800000000000000,-0.8220000000000000,192.0,0.0,0.0,0.0,0.0,0.0,0.0,0.0,0.0,0.0,1.67814040537752E+09,0.0,2023-03-06 14:06:45.377
214.0,-933.7664763649080,-3561.9963481421900,10695.622646286800,-13647.438722543600,21504.523933473100,0.0,0.0,0.0,0.428,-0.47800000000000000,-0.8220000000000000,192.0,0.0,0.0,0.0,0.0,0.0,0.0,0.0,0.0,0.0,1.67814040538152E+09,0.0,2023-03-06 14:06:45.381
215.0,-906.1620719626040,-3562.80101094258,10722.869422777800,-13649.740952222500,21520.46072726970,0.0,0.0,0.0,0.428,-0.47800000000000000,-0.8220000000000000,192.0,0.0,0.0,0.0,0.0,0.0,0.0,0.0,0.0,0.0,1.6781404053846E+09,0.0,2023-03-06 14:06:45.384
216.0,-900.8647085266960,-3561.795182442090,10751.323193469400,-13651.216167356500,21530.183736107800,0.0,0.0,0.0,0.428,-0.47800000000000000,-0.8220000000000000,192.0,0.0,0.0,0.0,0.0,0.0,0.0,0.0,0.0,0.0,1.67814040538862E+09,0.0,2023-03-06 14:06:45.388
217.0,-904.0833597282600,-3560.543484752590,10737.487463651600,-13640.084998617800,21526.272180828100,0.0,0.0,0.0,0.428,-0.47800000000000000,-0.8220000000000000,192.0,0.0,0.0,0.0,0.0,0.0,0.0,0.0,0.0,0.0,1.67814040539262E+09,0.0,2023-03-06 14:06:45.392
218.0,-912.6887813435530,-3558.218903329240,10696.360253853800,-13639.928536406600,21505.708575929200,0.0,0.0,0.0,0.428,-0.47800000000000000,-0.8220000000000000,192.0,0.0,0.0,0.0,0.0,0.0,0.0,0.0,0.0,0.0,1.67814040539661E+09,0.0,2023-03-06 14:06:45.396
219.0,-907.503176629922,-3557.5483509955800,10713.682855806700,-13639.347391050700,21513.934017888800,0.0,0.0,0.0,0.428,-0.47800000000000000,-0.8220000000000000,192.0,0.0,0.0,0.0,0.0,0.0,0.0,0.0,0.0,0.0,1.6781404054006E+09,0.0,2023-03-06 14:06:45.400
220.0,-901.6470195826320,-3556.2966533060900,10748.350411456900,-13636.486367760500,21533.35768382050,0.0,0.0,0.0,0.422,-0.48,-0.8300000000000000,192.0,13.0,48.0,241.0,0.0,230.0,16.0,0.0,0.0,0.0,1.67814040540467E+09,0.0,2023-03-06 14:06:45.404
221.0,-906.6761620850760,-3558.934159151810,10744.192986988200,-13636.396960782600,21535.41404431030,0.0,0.0,0.0,0.422,-0.48,-0.8300000000000000,192.0,0.0,0.0,0.0,0.0,0.0,0.0,0.0,0.0,0.0,1.67814040540966E+09,0.0,2023-03-06 14:06:45.409
222.0,-918.5225866463880,-3560.901112663880,10699.824774244400,-13641.13553060720,21515.655102211800,0.0,0.0,0.0,0.422,-0.48,-0.8300000000000000,192.0,0.0,0.0,0.0,0.0,0.0,0.0,0.0,0.0,0.0,1.67814040541269E+09,0.0,2023-03-06 14:06:45.412
223.0,-913.2252232104810,-3560.7446504526900,10706.55264932550,-13642.342524807800,21516.50446850120,0.0,0.0,0.0,0.422,-0.48,-0.8300000000000000,192.0,0.0,0.0,0.0,0.0,0.0,0.0,0.0,0.0,0.0,1.67814040541668E+09,0.0,2023-03-06 14:06:45.416
224.0,-903.8151387947960,-3562.6669004758500,10744.12593175480,-13636.620478227200,21531.860116941900,0.0,0.0,0.0,0.422,-0.48,-0.8300000000000000,192.0,0.0,0.0,0.0,0.0,0.0,0.0,0.0,0.0,0.0,1.67814040542069E+09,0.0,2023-03-06 14:06:45.420
225.0,-905.9385545180510,-3564.9691301547400,10750.9879173026,-13641.090827118300,21530.787233208100,0.0,0.0,0.0,0.422,-0.48,-0.8300000000000000,192.0,0.0,0.0,0.0,0.0,0.0,0.0,0.0,0.0,0.0,1.67814040542473E+09,0.0,2023-03-06 14:06:45.424
226.0,-920.5789471362770,-3565.9749586552300,10709.190155171200,-13649.025696399900,21516.12448884540,0.0,0.0,0.0,0.422,-0.48,-0.8300000000000000,192.0,0.0,0.0,0.0,0.0,0.0,0.0,0.0,0.0,0.0,1.67814040542892E+09,0.0,2023-03-06 14:06:45.428
227.0,-923.8870053156620,-3565.416165043850,10704.608047557800,-13645.94115566510,21523.20999183770,0.0,0.0,0.0,0.422,-0.48,-0.8300000000000000,192.0,0.0,0.0,0.0,0.0,0.0,0.0,0.0,0.0,0.0,1.67814040543275E+09,0.0,2023-03-06 14:06:45.432
228.0,-914.566327877799,-3563.0468801315900,10744.684725366200,-13643.41540854160,21533.804718709600,0.0,0.0,0.0,0.422,-0.48,-0.8300000000000000,192.0,0.0,0.0,0.0,0.0,0.0,0.0,0.0,0.0,0.0,1.67814040543778E+09,0.0,2023-03-06 14:06:45.437
229.0,-905.8714992846850,-3563.471563276240,10758.811027862000,-13650.99264991200,21523.63467498240,0.0,0.0,0.0,0.422,-0.48,-0.8300000000000000,192.0,0.0,0.0,0.0,0.0,0.0,0.0,0.0,0.0,0.0,1.67814040544078E+09,0.0,2023-03-06 14:06:45.440
230.0,-915.1698249780920,-3563.6727289763400,10721.818890788400,-13643.393056797200,21510.53655273160,0.0,0.0,0.0,0.422,-0.48,-0.8300000000000000,192.0,0.0,0.0,0.0,0.0,0.0,0.0,0.0,0.0,0.0,1.67814040544381E+09,0.0,2023-03-06 14:06:45.443
231.0,-918.9472697910390,-3563.3598045539600,10702.439928345700,-13642.186062596600,21503.92043637280,0.0,0.0,0.0,0.42,-0.47400000000000000,-0.834,192.0,13.0,32.0,241.0,48.0,229.0,240.0,0.0,0.0,0.0,1.6781404054488E+09,0.0,2023-03-06 14:06:45.448
232.0,-909.7383510754530,-3559.4258975298300,10740.639059619800,-13645.047085886800,21514.69397720030,0.0,0.0,0.0,0.42,-0.47400000000000000,-0.834,192.0,0.0,0.0,0.0,0.0,0.0,0.0,0.0,0.0,0.0,1.67814040545285E+09,0.0,2023-03-06 14:06:45.452
233.0,-900.3282666597690,-3553.9720718827300,10764.555426187000,-13642.163710852100,21522.427680781800,0.0,0.0,0.0,0.42,-0.47400000000000000,-0.834,192.0,0.0,0.0,0.0,0.0,0.0,0.0,0.0,0.0,0.0,1.67814040545684E+09,0.0,2023-03-06 14:06:45.456
234.0,-905.2680021843910,-3555.6261009724300,10735.542861884000,-13637.581603238800,21511.900009143400,0.0,0.0,0.0,0.42,-0.47400000000000000,-0.834,192.0,0.0,0.0,0.0,0.0,0.0,0.0,0.0,0.0,0.0,1.67814040546086E+09,0.0,2023-03-06 14:06:45.460
235.0,-917.8520343127290,-3554.374403282930,10704.339826624400,-13627.188042067100,21509.798945164600,0.0,0.0,0.0,0.42,-0.47400000000000000,-0.834,192.0,0.0,0.0,0.0,0.0,0.0,0.0,0.0,0.0,0.0,1.67814040546492E+09,0.0,2023-03-06 14:06:45.464
236.0,-913.4710923994890,-3550.3510892809700,10737.59922237390,-13626.02575135540,21531.055454141600,0.0,0.0,0.0,0.42,-0.47400000000000000,-0.834,192.0,0.0,0.0,0.0,0.0,0.0,0.0,0.0,0.0,0.0,1.67814040546893E+09,0.0,2023-03-06 14:06:45.468
237.0,-900.730598059964,-3554.9779003832200,10764.018984320000,-13634.228841570500,21537.671570500300,0.0,0.0,0.0,0.42,-0.47400000000000000,-0.834,192.0,0.0,0.0,0.0,0.0,0.0,0.0,0.0,0.0,0.0,1.67814040547193E+09,0.0,2023-03-06 14:06:45.471
238.0,-901.4458538825340,-3556.3637085394500,10742.382495687300,-13637.98393463900,21525.73573896120,0.0,0.0,0.0,0.42,-0.47400000000000000,-0.834,192.0,0.0,0.0,0.0,0.0,0.0,0.0,0.0,0.0,0.0,1.67814040547594E+09,0.0,2023-03-06 14:06:45.475
239.0,-915.0357145113610,-3557.4142405288500,10702.372873112300,-13633.178309581100,21508.703709686200,0.0,0.0,0.0,0.42,-0.47400000000000000,-0.834,192.0,0.0,0.0,0.0,0.0,0.0,0.0,0.0,0.0,0.0,1.67814040548096E+09,0.0,2023-03-06 14:06:45.480
240.0,-914.5439761333440,-3559.917635907850,10724.679914078700,-13629.803196168300,21523.74643370470,0.0,0.0,0.0,0.42,-0.47400000000000000,-0.834,192.0,0.0,0.0,0.0,0.0,0.0,0.0,0.0,0.0,0.0,1.678140405485E+09,0.0,2023-03-06 14:06:45.485
241.0,-910.6100691092100,-3560.498781263680,10753.088981281400,-13633.491234003500,21535.302285588100,0.0,0.0,0.0,0.422,-0.47200000000000000,-0.8220000000000000,192.0,13.0,48.0,241.0,64.0,230.0,80.0,0.0,0.0,0.0,1.67814040548899E+09,0.0,2023-03-06 14:06:45.488
242.0,-916.0638947563050,-3562.823362687040,10741.130797997800,-13646.410542298600,21526.875677928400,0.0,0.0,0.0,0.422,-0.47200000000000000,-0.8220000000000000,192.0,0.0,0.0,0.0,0.0,0.0,0.0,0.0,0.0,0.0,1.67814040549301E+09,0.0,2023-03-06 14:06:45.493
243.0,-927.440932684056,-3565.8855516774100,10699.310684121900,-13650.344449322800,21509.821296909000,0.0,0.0,0.0,0.422,-0.47200000000000000,-0.8220000000000000,192.0,0.0,0.0,0.0,0.0,0.0,0.0,0.0,0.0,0.0,1.67814040549702E+09,0.0,2023-03-06 14:06:45.497
244.0,-922.9035285596290,-3568.1430778674000,10716.521527352500,-13643.88479517520,21516.526820245600,0.0,0.0,0.0,0.422,-0.47200000000000000,-0.8220000000000000,192.0,0.0,0.0,0.0,0.0,0.0,0.0,0.0,0.0,0.0,1.67814040550005E+09,0.0,2023-03-06 14:06:45.500
245.0,-915.8850808006620,-3566.2655313331500,10753.334850470400,-13647.885757432700,21524.9310761608,0.0,0.0,0.0,0.422,-0.47200000000000000,-0.8220000000000000,192.0,0.0,0.0,0.0,0.0,0.0,0.0,0.0,0.0,0.0,1.67814040550404E+09,0.0,2023-03-06 14:06:45.504
246.0,-921.6071273812210,-3564.9020749213800,10749.55740565750,-13648.55630976630,21526.54040176160,0.0,0.0,0.0,0.422,-0.47200000000000000,-0.8220000000000000,192.0,0.0,0.0,0.0,0.0,0.0,0.0,0.0,0.0,0.0,1.67814040550913E+09,0.0,2023-03-06 14:06:45.509
247.0,-938.0356595558720,-3566.7796214556200,10703.535163824000,-13645.337658564800,21513.531686488600,0.0,0.0,0.0,0.422,-0.47200000000000000,-0.8220000000000000,192.0,0.0,0.0,0.0,0.0,0.0,0.0,0.0,0.0,0.0,1.67814040551313E+09,0.0,2023-03-06 14:06:45.513
248.0,-933.1406275201590,-3568.388947056410,10709.748948782600,-13643.773036452900,21512.816430666000,0.0,0.0,0.0,0.422,-0.47200000000000000,-0.8220000000000000,192.0,0.0,0.0,0.0,0.0,0.0,0.0,0.0,0.0,0.0,1.6781404055171E+09,0.0,2023-03-06 14:06:45.517
249.0,-907.1008452297270,-3561.929292908820,10749.825626590900,-13644.398885297600,21528.149727362400,0.0,0.0,0.0,0.422,-0.47200000000000000,-0.8220000000000000,192.0,0.0,0.0,0.0,0.0,0.0,0.0,0.0,0.0,0.0,1.67814040552115E+09,0.0,2023-03-06 14:06:45.521
250.0,-899.7024178150200,-3559.1129731074500,10758.185179017200,-13644.108312619700,21542.23132636920,0.0,0.0,0.0,0.422,-0.47200000000000000,-0.8220000000000000,192.0,0.0,0.0,0.0,0.0,0.0,0.0,0.0,0.0,0.0,1.67814040552515E+09,0.0,2023-03-06 14:06:45.525
251.0,-913.4263889105790,-3559.6941184632900,10717.102672708400,-13635.905222404600,21528.954390162800,0.0,0.0,0.0,0.42,-0.47400000000000000,-0.8220000000000000,192.0,13.0,32.0,241.0,48.0,230.0,80.0,0.0,0.0,0.0,1.67814040552822E+09,0.0,2023-03-06 14:06:45.528
252.0,-916.1756534785810,-3557.4142405288500,10709.659541804700,-13629.892603146100,21527.367416306400,0.0,0.0,0.0,0.42,-0.47400000000000000,-0.8220000000000000,192.0,0.0,0.0,0.0,0.0,0.0,0.0,0.0,0.0,0.0,1.67814040553219E+09,0.0,2023-03-06 14:06:45.532
253.0,-906.0279614958720,-3555.4249352723300,10746.02583003350,-13631.3678182802,21542.611306024900,0.0,0.0,0.0,0.42,-0.47400000000000000,-0.8220000000000000,192.0,0.0,0.0,0.0,0.0,0.0,0.0,0.0,0.0,0.0,1.67814040553619E+09,0.0,2023-03-06 14:06:45.536
254.0,-901.6917230715420,-3556.117839350440,10760.777981374000,-13635.525242748900,21546.25464037120,0.0,0.0,0.0,0.42,-0.47400000000000000,-0.8220000000000000,192.0,0.0,0.0,0.0,0.0,0.0,0.0,0.0,0.0,0.0,1.67814040554119E+09,0.0,2023-03-06 14:06:45.541
255.0,-909.9618685200060,-3550.9545863812700,10726.915088524200,-13639.79442593990,21529.110852373900,0.0,0.0,0.0,0.42,-0.47400000000000000,-0.8220000000000000,192.0,0.0,0.0,0.0,0.0,0.0,0.0,0.0,0.0,0.0,1.67814040554521E+09,0.0,2023-03-06 14:06:45.545
0.0,-915.5721563782880,-3551.111048592450,10707.044387703500,-13637.447492772000,21523.6793784713,0.0,0.0,0.0,0.42,-0.47400000000000000,-0.8220000000000000,192.0,0.0,0.0,0.0,0.0,0.0,0.0,0.0,0.0,0.0,1.67814040554927E+09,0.0,2023-03-06 14:06:45.549
1.0,-904.0163044948940,-3551.111048592450,10741.801350331500,-13637.581603238800,21539.996151923700,0.0,0.0,0.0,0.42,-0.47400000000000000,-0.8220000000000000,192.0,0.0,0.0,0.0,0.0,0.0,0.0,0.0,0.0,0.0,1.6781404055523E+09,0.0,2023-03-06 14:06:45.552
2.0,-897.958981747506,-3551.7816009261100,10764.93540584270,-13640.50968176240,21544.801776981600,0.0,0.0,0.0,0.42,-0.47400000000000000,-0.8220000000000000,192.0,0.0,0.0,0.0,0.0,0.0,0.0,0.0,0.0,0.0,1.6781404055563E+09,0.0,2023-03-06 14:06:45.556
3.0,-907.5255283743770,-3554.08383060501,10736.593393873400,-13640.464978273500,21528.77557620710,0.0,0.0,0.0,0.42,-0.47400000000000000,-0.8220000000000000,192.0,0.0,0.0,0.0,0.0,0.0,0.0,0.0,0.0,0.0,1.67814040556031E+09,0.0,2023-03-06 14:06:45.560
4.0,-914.4322174110670,-3554.2402928162000,10707.35731212580,-13643.08013237480,21512.97289287720,0.0,0.0,0.0,0.42,-0.47400000000000000,-0.8220000000000000,192.0,0.0,0.0,0.0,0.0,0.0,0.0,0.0,0.0,0.0,1.67814040556434E+09,0.0,2023-03-06 14:06:45.564
5.0,-904.2621736839030,-3551.7816009261100,10740.035562519500,-13639.682667217600,21524.819317438500,0.0,0.0,0.0,0.42,-0.47400000000000000,-0.8280000000000000,192.0,13.0,32.0,241.0,48.0,230.0,32.0,0.0,0.0,0.0,1.67814040556836E+09,0.0,2023-03-06 14:06:45.568
6.0,-898.5177753588890,-3550.0381648586000,10765.56125468750,-13633.915917148100,21529.960218663200,0.0,0.0,0.0,0.42,-0.47400000000000000,-0.8280000000000000,192.0,0.0,0.0,0.0,0.0,0.0,0.0,0.0,0.0,0.0,1.67814040557341E+09,0.0,2023-03-06 14:06:45.573
7.0,-907.9949150079390,-3551.312214292550,10742.628364876300,-13630.339638035300,21522.785308693100,0.0,0.0,0.0,0.42,-0.47400000000000000,-0.8280000000000000,192.0,0.0,0.0,0.0,0.0,0.0,0.0,0.0,0.0,0.0,1.67814040557641E+09,0.0,2023-03-06 14:06:45.576
8.0,-911.3253249317800,-3550.708717192260,10703.199887657200,-13633.64769621460,21509.955407375700,0.0,0.0,0.0,0.42,-0.47400000000000000,-0.8280000000000000,192.0,0.0,0.0,0.0,0.0,0.0,0.0,0.0,0.0,0.0,1.6781404055804E+09,0.0,2023-03-06 14:06:45.580
9.0,-893.7568537899080,-3547.9818043687100,10729.59729785890,-13645.337658564800,21517.39853827940,0.0,0.0,0.0,0.42,-0.47400000000000000,-0.8280000000000000,192.0,0.0,0.0,0.0,0.0,0.0,0.0,0.0,0.0,0.0,1.67814040558443E+09,0.0,2023-03-06 14:06:45.584
10.0,-887.7442345314310,-3544.472580489230,10760.107429040400,-13644.354181808700,21526.719215717200,0.0,0.0,0.0,0.42,-0.47400000000000000,-0.8280000000000000,192.0,0.0,0.0,0.0,0.0,0.0,0.0,0.0,0.0,0.0,1.67814040558847E+09,0.0,2023-03-06 14:06:45.588
11.0,-896.9084497581070,-3546.1713130678300,10749.244481235100,-13641.381399796200,21523.74643370470,0.0,0.0,0.0,0.42,-0.47400000000000000,-0.8280000000000000,192.0,0.0,0.0,0.0,0.0,0.0,0.0,0.0,0.0,0.0,1.67814040559247E+09,0.0,2023-03-06 14:06:45.592
12.0,-906.4749963849780,-3546.0372026011000,10706.664408047700,-13641.22493758500,21506.982625363200,0.0,0.0,0.0,0.42,-0.47400000000000000,-0.8280000000000000,192.0,0.0,0.0,0.0,0.0,0.0,0.0,0.0,0.0,0.0,1.67814040559652E+09,0.0,2023-03-06 14:06:45.596
13.0,-899.344789903735,-3547.311252035050,10720.589544843400,-13637.626306727700,21508.346081775000,0.0,0.0,0.0,0.42,-0.47400000000000000,-0.8280000000000000,192.0,0.0,0.0,0.0,0.0,0.0,0.0,0.0,0.0,0.0,1.67814040560152E+09,0.0,2023-03-06 14:06:45.601
14.0,-888.0124554648940,-3547.668879946340,10756.397039460800,-13636.88869916070,21519.54430574710,0.0,0.0,0.0,0.42,-0.47400000000000000,-0.8280000000000000,192.0,0.0,0.0,0.0,0.0,0.0,0.0,0.0,0.0,0.0,1.67814040560463E+09,0.0,2023-03-06 14:06:45.604
15.0,-896.4167113800900,-3548.3841357689100,10756.240577249600,-13643.46011203050,21517.666759212800,0.0,0.0,0.0,0.422,-0.47200000000000000,-0.8300000000000000,192.0,13.0,48.0,241.0,64.0,230.0,16.0,0.0,0.0,0.0,1.67814040560759E+09,0.0,2023-03-06 14:06:45.607
16.0,-911.8394150542520,-3553.480333504720,10712.609972072800,-13646.65641148760,21495.136200801900,0.0,0.0,0.0,0.422,-0.47200000000000000,-0.8300000000000000,192.0,0.0,0.0,0.0,0.0,0.0,0.0,0.0,0.0,0.0,1.67814040561261E+09,0.0,2023-03-06 14:06:45.612
17.0,-906.8326242962630,-3555.1343625944100,10716.45447211920,-13649.897414433600,21501.05941308250,0.0,0.0,0.0,0.422,-0.47200000000000000,-0.8300000000000000,192.0,0.0,0.0,0.0,0.0,0.0,0.0,0.0,0.0,0.0,1.6781404056166E+09,0.0,2023-03-06 14:06:45.616
18.0,-893.9356677455510,-3550.708717192260,10755.07828653790,-13643.683629475100,21524.282875571600,0.0,0.0,0.0,0.422,-0.47200000000000000,-0.8300000000000000,192.0,0.0,0.0,0.0,0.0,0.0,0.0,0.0,0.0,0.0,1.67814040562061E+09,0.0,2023-03-06 14:06:45.620
19.0,-893.4439293675340,-3549.7475921806800,10759.70509764020,-13640.084998617800,21529.133204118400,0.0,0.0,0.0,0.422,-0.47200000000000000,-0.8300000000000000,192.0,0.0,0.0,0.0,0.0,0.0,0.0,0.0,0.0,0.0,1.6781404056246E+09,0.0,2023-03-06 14:06:45.624
20.0,-906.2738306848800,-3548.808818913560,10716.07449246340,-13637.179271838600,21513.375224277400,0.0,0.0,0.0,0.422,-0.47200000000000000,-0.8300000000000000,192.0,0.0,0.0,0.0,0.0,0.0,0.0,0.0,0.0,0.0,1.67814040562968E+09,0.0,2023-03-06 14:06:45.629
21.0,-910.5206621313890,-3551.2451590591900,10702.618742301300,-13635.70405670450,21508.01080560810,0.0,0.0,0.0,0.422,-0.47200000000000000,-0.8300000000000000,192.0,0.0,0.0,0.0,0.0,0.0,0.0,0.0,0.0,0.0,1.67814040563266E+09,0.0,2023-03-06 14:06:45.632
22.0,-899.7918247928410,-3553.122705593430,10742.65071662080,-13640.017943384400,21524.48404127170,0.0,0.0,0.0,0.422,-0.47200000000000000,-0.8300000000000000,192.0,0.0,0.0,0.0,0.0,0.0,0.0,0.0,0.0,0.0,1.67814040563565E+09,0.0,2023-03-06 14:06:45.635
23.0,-895.8355660242520,-3553.1897608268000,10759.36982147330,-13635.547594493300,21534.519974532100,0.0,0.0,0.0,0.422,-0.47200000000000000,-0.8300000000000000,192.0,0.0,0.0,0.0,0.0,0.0,0.0,0.0,0.0,0.0,1.67814040564168E+09,0.0,2023-03-06 14:06:45.641
24.0,-904.9997812509280,-3554.061478860560,10723.182347200200,-13639.302687561800,21516.48211675670,0.0,0.0,0.0,0.422,-0.47200000000000000,-0.8300000000000000,192.0,0.0,0.0,0.0,0.0,0.0,0.0,0.0,0.0,0.0,1.67814040564471E+09,0.0,2023-03-06 14:06:45.644
25.0,-911.2359179539580,-3557.928330651320,10703.06577719040,-13636.016981126900,21509.575427720000,0.0,0.0,0.0,0.41600000000000000,-0.48,-0.8280000000000000,192.0,13.0,0.0,241.0,0.0,230.0,32.0,0.0,0.0,0.0,1.67814040564875E+09,0.0,2023-03-06 14:06:45.648
26.0,-901.1552812046150,-3555.670804461340,10738.962678785600,-13632.261888058400,21526.763919206100,0.0,0.0,0.0,0.41600000000000000,-0.48,-0.8280000000000000,192.0,0.0,0.0,0.0,0.0,0.0,0.0,0.0,0.0,0.0,1.67814040565273E+09,0.0,2023-03-06 14:06:45.652
27.0,-896.0143799798940,-3553.1897608268000,10761.269719752000,-13638.65448697260,21529.602590752000,0.0,0.0,0.0,0.41600000000000000,-0.48,-0.8280000000000000,192.0,0.0,0.0,0.0,0.0,0.0,0.0,0.0,0.0,0.0,1.67814040565678E+09,0.0,2023-03-06 14:06:45.656
28.0,-902.8093102943080,-3553.1897608268000,10733.866481049800,-13640.353219551200,21506.915570129800,0.0,0.0,0.0,0.41600000000000000,-0.48,-0.8280000000000000,192.0,0.0,0.0,0.0,0.0,0.0,0.0,0.0,0.0,0.0,1.67814040565977E+09,0.0,2023-03-06 14:06:45.659
29.0,-910.99004876495,-3554.709679449760,10701.299989378500,-13631.233707813500,21497.103154313900,0.0,0.0,0.0,0.41600000000000000,-0.48,-0.8280000000000000,192.0,0.0,0.0,0.0,0.0,0.0,0.0,0.0,0.0,0.0,1.67814040566378E+09,0.0,2023-03-06 14:06:45.663
30.0,-900.9317637600620,-3551.8486561594800,10733.687667094200,-13632.239536314000,21519.45489876930,0.0,0.0,0.0,0.41600000000000000,-0.48,-0.8280000000000000,192.0,0.0,0.0,0.0,0.0,0.0,0.0,0.0,0.0,0.0,1.6781404056678E+09,0.0,2023-03-06 14:06:45.667
31.0,-897.8025195363190,-3551.9380631373000,10761.64969940780,-13641.403751540600,21532.418910553300,0.0,0.0,0.0,0.41600000000000000,-0.48,-0.8280000000000000,192.0,0.0,0.0,0.0,0.0,0.0,0.0,0.0,0.0,0.0,1.67814040567282E+09,0.0,2023-03-06 14:06:45.672
32.0,-906.340885918246,-3554.08383060501,10742.158978242800,-13643.147187608100,21522.02534938160,0.0,0.0,0.0,0.41600000000000000,-0.48,-0.8280000000000000,192.0,0.0,0.0,0.0,0.0,0.0,0.0,0.0,0.0,0.0,1.67814040567684E+09,0.0,2023-03-06 14:06:45.676
33.0,-923.3058599598240,-3555.7825631836100,10700.383567855800,-13642.320173063300,21504.83685789550,0.0,0.0,0.0,0.41600000000000000,-0.48,-0.8280000000000000,192.0,0.0,0.0,0.0,0.0,0.0,0.0,0.0,0.0,0.0,1.67814040568086E+09,0.0,2023-03-06 14:06:45.680
34.0,-915.1027697447260,-3555.5366939946100,10724.523451867500,-13641.962545152000,21519.007863880100,0.0,0.0,0.0,0.41600000000000000,-0.48,-0.8280000000000000,192.0,0.0,0.0,0.0,0.0,0.0,0.0,0.0,0.0,0.0,1.67814040568487E+09,0.0,2023-03-06 14:06:45.684
35.0,-899.8588800262070,-3556.9895573842,10757.402867961300,-13642.342524807800,21531.234268097200,0.0,0.0,0.0,0.422,-0.482,-0.8320000000000000,192.0,13.0,48.0,240.0,240.0,230.0,0.0,0.0,0.0,0.0,1.67814040568789E+09,0.0,2023-03-06 14:06:45.687
36.0,-903.6810283280650,-3558.4647725182500,10747.03165853400,-13642.901318419100,21522.07005287050,0.0,0.0,0.0,0.422,-0.482,-0.8320000000000000,192.0,0.0,0.0,0.0,0.0,0.0,0.0,0.0,0.0,0.0,1.6781404056919E+09,0.0,2023-03-06 14:06:45.691
37.0,-913.1134644882040,-3560.565836497050,10704.161012668700,-13645.717638220500,21506.49088698520,0.0,0.0,0.0,0.422,-0.482,-0.8320000000000000,192.0,0.0,0.0,0.0,0.0,0.0,0.0,0.0,0.0,0.0,1.67814040569596E+09,0.0,2023-03-06 14:06:45.695
38.0,-911.9288220320730,-3560.767002197150,10716.789748286000,-13648.243385344000,21517.59970397950,0.0,0.0,0.0,0.422,-0.482,-0.8320000000000000,192.0,0.0,0.0,0.0,0.0,0.0,0.0,0.0,0.0,0.0,1.67814040569996E+09,0.0,2023-03-06 14:06:45.699
39.0,-905.3127056733020,-3557.1683713398400,10752.50783592560,-13644.287126575400,21533.290628587100,0.0,0.0,0.0,0.422,-0.482,-0.8320000000000000,192.0,0.0,0.0,0.0,0.0,0.0,0.0,0.0,0.0,0.0,1.67814040570498E+09,0.0,2023-03-06 14:06:45.704
40.0,-910.5877173647540,-3558.3977172848800,10754.02775454850,-13644.912975420100,21533.760015220600,0.0,0.0,0.0,0.422,-0.482,-0.8320000000000000,192.0,0.0,0.0,0.0,0.0,0.0,0.0,0.0,0.0,0.0,1.67814040570898E+09,0.0,2023-03-06 14:06:45.708
41.0,-923.0152872819050,-3559.157676596370,10710.151280182800,-13643.281298074900,21515.811564423000,0.0,0.0,0.0,0.422,-0.482,-0.8320000000000000,192.0,0.0,0.0,0.0,0.0,0.0,0.0,0.0,0.0,0.0,1.67814040571303E+09,0.0,2023-03-06 14:06:45.713
42.0,-918.7908075798520,-3559.0459178740900,10708.564306326400,-13642.878966674700,21515.968026634200,0.0,0.0,0.0,0.422,-0.482,-0.8320000000000000,192.0,0.0,0.0,0.0,0.0,0.0,0.0,0.0,0.0,0.0,1.67814040571601E+09,0.0,2023-03-06 14:06:45.716
43.0,-904.2621736839030,-3560.8787609194200,10744.662373621700,-13646.99168765450,21529.31201807400,0.0,0.0,0.0,0.422,-0.482,-0.8320000000000000,192.0,0.0,0.0,0.0,0.0,0.0,0.0,0.0,0.0,0.0,1.67814040572006E+09,0.0,2023-03-06 14:06:45.720
44.0,-903.8151387947960,-3561.884589419910,10754.139513270800,-13647.170501610100,21529.602590752000,0.0,0.0,0.0,0.422,-0.482,-0.8320000000000000,192.0,0.0,0.0,0.0,0.0,0.0,0.0,0.0,0.0,0.0,1.67814040572404E+09,0.0,2023-03-06 14:06:45.724
45.0,-916.8685575566960,-3559.89528416339,10714.375759884800,-13640.956716651500,21511.78825042110,0.0,0.0,0.0,0.42,-0.47800000000000000,-0.838,192.0,13.0,32.0,241.0,16.0,229.0,208.0,0.0,0.0,0.0,1.67814040572808E+09,0.0,2023-03-06 14:06:45.728
46.0,-920.2213192249920,-3559.7611736966600,10702.283466134500,-13640.084998617800,21511.520029487600,0.0,0.0,0.0,0.42,-0.47800000000000000,-0.838,192.0,0.0,0.0,0.0,0.0,0.0,0.0,0.0,0.0,0.0,1.67814040573411E+09,0.0,2023-03-06 14:06:45.734
47.0,-904.2398219394470,-3557.0789643620200,10741.466074164600,-13644.309478319800,21529.557887263000,0.0,0.0,0.0,0.42,-0.47800000000000000,-0.838,192.0,0.0,0.0,0.0,0.0,0.0,0.0,0.0,0.0,0.0,1.67814040573816E+09,0.0,2023-03-06 14:06:45.738
48.0,-900.2388596819470,-3558.3530137959700,10755.480617938100,-13642.342524807800,21536.151651877400,0.0,0.0,0.0,0.42,-0.47800000000000000,-0.838,192.0,0.0,0.0,0.0,0.0,0.0,0.0,0.0,0.0,0.0,1.67814040574113E+09,0.0,2023-03-06 14:06:45.741
49.0,-913.0911127437490,-3562.309272564560,10718.086149464400,-13643.41540854160,21523.858192426900,0.0,0.0,0.0,0.42,-0.47800000000000000,-0.838,192.0,0.0,0.0,0.0,0.0,0.0,0.0,0.0,0.0,0.0,1.67814040574535E+09,0.0,2023-03-06 14:06:45.745
50.0,-922.3000314593350,-3562.532790009120,10693.096899163400,-13639.593260239800,21516.88444815690,0.0,0.0,0.0,0.42,-0.47800000000000000,-0.838,192.0,0.0,0.0,0.0,0.0,0.0,0.0,0.0,0.0,0.0,1.67814040574825E+09,0.0,2023-03-06 14:06:45.748
51.0,-911.4817871429670,-3560.2976155635900,10729.865518792300,-13642.521338763400,21528.59676225150,0.0,0.0,0.0,0.42,-0.47800000000000000,-0.838,192.0,0.0,0.0,0.0,0.0,0.0,0.0,0.0,0.0,0.0,1.67814040575219E+09,0.0,2023-03-06 14:06:45.752
52.0,-906.407941151612,-3561.3928510419000,10757.089943538900,-13646.74581846550,21530.384901807900,0.0,0.0,0.0,0.42,-0.47800000000000000,-0.838,192.0,0.0,0.0,0.0,0.0,0.0,0.0,0.0,0.0,0.0,1.67814040575622E+09,0.0,2023-03-06 14:06:45.756
53.0,-917.248537212436,-3563.5833219985200,10731.02780950400,-13644.644754486700,21520.63954122540,0.0,0.0,0.0,0.42,-0.47800000000000000,-0.838,192.0,0.0,0.0,0.0,0.0,0.0,0.0,0.0,0.0,0.0,1.67814040576027E+09,0.0,2023-03-06 14:06:45.760
54.0,-927.8209123397960,-3565.572627255040,10693.968617197100,-13640.88966141820,21508.368433519400,0.0,0.0,0.0,0.42,-0.47800000000000000,-0.838,192.0,0.0,0.0,0.0,0.0,0.0,0.0,0.0,0.0,0.0,1.67814040576525E+09,0.0,2023-03-06 14:06:45.765
55.0,-917.9637930350060,-3564.544447010090,10722.712960566600,-13640.800254440300,21519.857230169400,0.0,0.0,0.0,0.42,-0.47600000000000000,-0.8320000000000000,192.0,13.0,32.0,241.0,32.0,230.0,0.0,0.0,0.0,0.0,1.67814040576929E+09,0.0,2023-03-06 14:06:45.769
56.0,-907.4808248854670,-3563.091583620500,10751.390248702800,-13638.900356161600,21530.898991930400,0.0,0.0,0.0,0.42,-0.47600000000000000,-0.8320000000000000,192.0,0.0,0.0,0.0,0.0,0.0,0.0,0.0,0.0,0.0,1.67814040577232E+09,0.0,2023-03-06 14:06:45.772
57.0,-916.6226883676870,-3562.823362687040,10733.26298394950,-13632.686571203100,21527.21095409520,0.0,0.0,0.0,0.42,-0.47600000000000000,-0.8320000000000000,192.0,0.0,0.0,0.0,0.0,0.0,0.0,0.0,0.0,0.0,1.6781404057763E+09,0.0,2023-03-06 14:06:45.776
58.0,-932.6488891421430,-3561.549313253080,10693.20865788560,-13633.915917148100,21517.800869679600,0.0,0.0,0.0,0.42,-0.47600000000000000,-0.8320000000000000,192.0,0.0,0.0,0.0,0.0,0.0,0.0,0.0,0.0,0.0,1.67814040578036E+09,0.0,2023-03-06 14:06:45.780
59.0,-927.1503600061370,-3562.443383031300,10716.677989563700,-13633.178309581100,21526.383939550400,0.0,0.0,0.0,0.42,-0.47600000000000000,-0.8320000000000000,192.0,0.0,0.0,0.0,0.0,0.0,0.0,0.0,0.0,0.0,1.67814040578433E+09,0.0,2023-03-06 14:06:45.784
60.0,-912.599374365732,-3564.142115609900,10750.630289391300,-13637.492196261000,21541.11373914640,0.0,0.0,0.0,0.42,-0.47600000000000000,-0.8320000000000000,192.0,0.0,0.0,0.0,0.0,0.0,0.0,0.0,0.0,0.0,1.67814040578836E+09,0.0,2023-03-06 14:06:45.788
61.0,-912.8899470436510,-3564.9914818992,10744.572966643900,-13637.380437538700,21540.845518213000,0.0,0.0,0.0,0.42,-0.47600000000000000,-0.8320000000000000,192.0,0.0,0.0,0.0,0.0,0.0,0.0,0.0,0.0,0.0,1.67814040579238E+09,0.0,2023-03-06 14:06:45.792
62.0,-922.4117901816120,-3565.5279237661300,10700.741195767100,-13630.898431646600,21523.478212771200,0.0,0.0,0.0,0.42,-0.47600000000000000,-0.8320000000000000,192.0,0.0,0.0,0.0,0.0,0.0,0.0,0.0,0.0,0.0,1.67814040579639E+09,0.0,2023-03-06 14:06:45.796
63.0,-913.8510720552290,-3563.5609702540600,10713.88402150680,-13628.015056611900,21537.82803271150,0.0,0.0,0.0,0.42,-0.47600000000000000,-0.8320000000000000,192.0,0.0,0.0,0.0,0.0,0.0,0.0,0.0,0.0,0.0,1.67814040579944E+09,0.0,2023-03-06 14:06:45.799
64.0,-905.826795795774,-3559.2023800852800,10753.379553959300,-13632.217184569500,21555.79883525360,0.0,0.0,0.0,0.42,-0.47600000000000000,-0.8320000000000000,192.0,0.0,0.0,0.0,0.0,0.0,0.0,0.0,0.0,0.0,1.67814040580447E+09,0.0,2023-03-06 14:06:45.804
65.0,-908.956040019517,-3566.3549383109700,10755.74883887160,-13632.016018869400,21558.548099821600,0.0,0.0,0.0,0.42,-0.47600000000000000,-0.8320000000000000,192.0,0.0,0.0,0.0,0.0,0.0,0.0,0.0,0.0,0.0,1.67814040580844E+09,0.0,2023-03-06 14:06:45.808
66.0,-920.2213192249920,-3568.724223223240,10710.821832516400,-13634.69822820400,21534.475271043200,0.0,0.0,0.0,0.424,-0.482,-0.8280000000000000,192.0,13.0,64.0,240.0,240.0,230.0,32.0,0.0,0.0,0.0,1.67814040581246E+09,0.0,2023-03-06 14:06:45.812
67.0,-919.148435491137,-3567.763098211660,10710.084224949400,-13640.733199207000,21530.854288441500,0.0,0.0,0.0,0.424,-0.482,-0.8280000000000000,192.0,0.0,0.0,0.0,0.0,0.0,0.0,0.0,0.0,0.0,1.67814040581651E+09,0.0,2023-03-06 14:06:45.816
68.0,-907.4137696521010,-3564.5220952656400,10748.909205068300,-13641.068475373800,21549.45093982830,0.0,0.0,0.0,0.424,-0.482,-0.8280000000000000,192.0,0.0,0.0,0.0,0.0,0.0,0.0,0.0,0.0,0.0,1.67814040582051E+09,0.0,2023-03-06 14:06:45.820
69.0,-905.6703335845870,-3563.2256940872300,10757.246405750100,-13636.88869916070,21556.111759676000,0.0,0.0,0.0,0.424,-0.482,-0.8280000000000000,192.0,0.0,0.0,0.0,0.0,0.0,0.0,0.0,0.0,0.0,1.67814040582461E+09,0.0,2023-03-06 14:06:45.824
70.0,-918.8355110687630,-3562.6221969869400,10716.052140719000,-13631.345466535700,21543.952410692300,0.0,0.0,0.0,0.424,-0.482,-0.8280000000000000,192.0,0.0,0.0,0.0,0.0,0.0,0.0,0.0,0.0,0.0,1.67814040582864E+09,0.0,2023-03-06 14:06:45.828
71.0,-921.0706855142940,-3561.7057754642700,10703.132832423800,-13629.803196168300,21543.863003714400,0.0,0.0,0.0,0.424,-0.482,-0.8280000000000000,192.0,0.0,0.0,0.0,0.0,0.0,0.0,0.0,0.0,0.0,1.67814040583163E+09,0.0,2023-03-06 14:06:45.831
72.0,-901.7587783049080,-3557.1683713398400,10741.533129398000,-13630.898431646600,21558.615155054900,0.0,0.0,0.0,0.424,-0.482,-0.8280000000000000,192.0,0.0,0.0,0.0,0.0,0.0,0.0,0.0,0.0,0.0,1.67814040583659E+09,0.0,2023-03-06 14:06:45.836
73.0,-896.4167113800900,-3554.5308654941200,10760.979147074100,-13629.803196168300,21565.83476851400,0.0,0.0,0.0,0.424,-0.482,-0.8280000000000000,192.0,0.0,0.0,0.0,0.0,0.0,0.0,0.0,0.0,0.0,1.67814040584059E+09,0.0,2023-03-06 14:06:45.840
74.0,-903.3234004167800,-3548.2276735577200,10729.485539136600,-13619.543745463300,21558.70456203280,0.0,0.0,0.0,0.424,-0.482,-0.8280000000000000,192.0,0.0,0.0,0.0,0.0,0.0,0.0,0.0,0.0,0.0,1.67814040584463E+09,0.0,2023-03-06 14:06:45.844
75.0,-913.4710923994890,-3548.2723770466300,10705.032730702500,-13597.415518452600,21566.8405970145,0.0,0.0,0.0,0.424,-0.482,-0.8280000000000000,192.0,0.0,0.0,0.0,0.0,0.0,0.0,0.0,0.0,0.0,1.67814040584865E+09,0.0,2023-03-06 14:06:45.848
76.0,-903.8821940281620,-3545.567815967540,10741.644888120300,-13610.021902325400,21576.340088408000,0.0,0.0,0.0,0.41600000000000000,-0.48,-0.8300000000000000,192.0,13.0,0.0,241.0,0.0,230.0,16.0,0.0,0.0,0.0,1.67814040585168E+09,0.0,2023-03-06 14:06:45.851
77.0,-891.2981618998240,-3544.5172839781400,10766.745897143600,-13638.296859061300,21557.944602721300,0.0,0.0,0.0,0.41600000000000000,-0.48,-0.8300000000000000,192.0,0.0,0.0,0.0,0.0,0.0,0.0,0.0,0.0,0.0,1.67814040585567E+09,0.0,2023-03-06 14:06:45.855
78.0,-896.6625805690980,-3547.3336037795100,10742.136626498300,-13644.868271931200,21536.30811408860,0.0,0.0,0.0,0.41600000000000000,-0.48,-0.8300000000000000,192.0,0.0,0.0,0.0,0.0,0.0,0.0,0.0,0.0,0.0,1.67814040585969E+09,0.0,2023-03-06 14:06:45.859
79.0,-906.1620719626040,-3546.640699701390,10705.949152225200,-13652.534920279400,21519.074919113500,0.0,0.0,0.0,0.41600000000000000,-0.48,-0.8300000000000000,192.0,0.0,0.0,0.0,0.0,0.0,0.0,0.0,0.0,0.0,1.67814040586374E+09,0.0,2023-03-06 14:06:45.863
80.0,-898.5177753588890,-3545.7242781787300,10732.12304498230,-13671.623310044200,21516.25859931210,0.0,0.0,0.0,0.41600000000000000,-0.48,-0.8300000000000000,192.0,0.0,0.0,0.0,0.0,0.0,0.0,0.0,0.0,0.0,1.67814040586873E+09,0.0,2023-03-06 14:06:45.868
81.0,-889.1300426876600,-3539.5999001979700,10763.773115131000,-13686.174295684600,21507.228494552200,0.0,0.0,0.0,0.41600000000000000,-0.48,-0.8300000000000000,192.0,0.0,0.0,0.0,0.0,0.0,0.0,0.0,0.0,0.0,1.67814040587284E+09,0.0,2023-03-06 14:06:45.872
82.0,-892.1028247002160,-3537.185911796800,10746.763437600500,-13689.258836419400,21500.522971215600,0.0,0.0,0.0,0.41600000000000000,-0.48,-0.8300000000000000,192.0,0.0,0.0,0.0,0.0,0.0,0.0,0.0,0.0,0.0,1.67814040587676E+09,0.0,2023-03-06 14:06:45.876
83.0,-904.9997812509280,-3542.2374060437000,10701.9258382232,-13706.603790116800,21463.709648097700,0.0,0.0,0.0,0.41600000000000000,-0.48,-0.8300000000000000,192.0,0.0,0.0,0.0,0.0,0.0,0.0,0.0,0.0,0.0,1.67814040587979E+09,0.0,2023-03-06 14:06:45.879
84.0,-897.2213741804810,-3542.2374060437000,10722.31062916640,-13713.443423920100,21464.134331242400,0.0,0.0,0.0,0.41600000000000000,-0.48,-0.8300000000000000,192.0,0.0,0.0,0.0,0.0,0.0,0.0,0.0,0.0,0.0,1.67814040588479E+09,0.0,2023-03-06 14:06:45.884
85.0,-886.6266473086650,-3541.6562606878600,10756.732315627600,-13708.637798862200,21475.734886614700,0.0,0.0,0.0,0.41600000000000000,-0.48,-0.8300000000000000,192.0,0.0,0.0,0.0,0.0,0.0,0.0,0.0,0.0,0.0,1.6781404058888E+09,0.0,2023-03-06 14:06:45.888
86.0,-887.3866066201460,-3545.8136851565500,10749.825626590900,-13720.640685634700,21461.407418418800,0.0,0.0,0.0,0.418,-0.482,-0.8300000000000000,192.0,13.0,16.0,240.0,240.0,230.0,16.0,0.0,0.0,0.0,1.67814040589184E+09,0.0,2023-03-06 14:06:45.891
87.0,-899.344789903735,-3548.920577635830,10703.579867312900,-13728.329685727300,21442.073159465000,0.0,0.0,0.0,0.418,-0.482,-0.8300000000000000,192.0,0.0,0.0,0.0,0.0,0.0,0.0,0.0,0.0,0.0,1.67814040589586E+09,0.0,2023-03-06 14:06:45.895
88.0,-897.5119468584000,-3548.6300049579200,10710.9782947276,-13724.060502536400,21451.14796771380,0.0,0.0,0.0,0.418,-0.482,-0.8300000000000000,192.0,0.0,0.0,0.0,0.0,0.0,0.0,0.0,0.0,0.0,1.67814040590086E+09,0.0,2023-03-06 14:06:45.900
89.0,-890.3370368882460,-3549.6805369473100,10744.818835832900,-13719.925429812100,21464.447255664700,0.0,0.0,0.0,0.418,-0.482,-0.8300000000000000,192.0,0.0,0.0,0.0,0.0,0.0,0.0,0.0,0.0,0.0,1.67814040590493E+09,0.0,2023-03-06 14:06:45.904
90.0,-899.0542172258160,-3553.5250369936300,10745.332925955400,-13724.731054870000,21462.904985297300,0.0,0.0,0.0,0.418,-0.482,-0.8300000000000000,192.0,0.0,0.0,0.0,0.0,0.0,0.0,0.0,0.0,0.0,1.67814040590794E+09,0.0,2023-03-06 14:06:45.907
91.0,-918.7684558353970,-3555.8719701614300,10703.35634986830,-13720.28305772340,21448.19753744570,0.0,0.0,0.0,0.418,-0.482,-0.8300000000000000,192.0,0.0,0.0,0.0,0.0,0.0,0.0,0.0,0.0,0.0,1.6781404059119E+09,0.0,2023-03-06 14:06:45.911
92.0,-915.1698249780920,-3553.8156096715500,10701.568210311900,-13714.292790209400,21452.57847935900,0.0,0.0,0.0,0.418,-0.482,-0.8300000000000000,192.0,0.0,0.0,0.0,0.0,0.0,0.0,0.0,0.0,0.0,1.67814040591595E+09,0.0,2023-03-06 14:06:45.915
93.0,-890.1358711881490,-3549.6581852028600,10741.086094508900,-13710.828269818800,21467.598851632900,0.0,0.0,0.0,0.418,-0.482,-0.8300000000000000,192.0,0.0,0.0,0.0,0.0,0.0,0.0,0.0,0.0,0.0,1.67814040591998E+09,0.0,2023-03-06 14:06:45.919
94.0,-882.245705395425,-3548.250025302180,10752.79840860350,-13702.669883092600,21478.372392460400,0.0,0.0,0.0,0.418,-0.482,-0.8300000000000000,192.0,0.0,0.0,0.0,0.0,0.0,0.0,0.0,0.0,0.0,1.67814040592402E+09,0.0,2023-03-06 14:06:45.924
95.0,-893.9803712344610,-3546.864217145950,10713.079358706400,-13692.790412043400,21471.06337202350,0.0,0.0,0.0,0.418,-0.482,-0.8300000000000000,192.0,0.0,0.0,0.0,0.0,0.0,0.0,0.0,0.0,0.0,1.67814040592901E+09,0.0,2023-03-06 14:06:45.929
96.0,-901.1105777157040,-3546.931272379310,10694.661521275200,-13690.37642364220,21468.20234873320,0.0,0.0,0.0,0.424,-0.484,-0.8280000000000000,192.0,13.0,64.0,240.0,224.0,230.0,32.0,0.0,0.0,0.0,1.67814040593302E+09,0.0,2023-03-06 14:06:45.933
97.0,-891.3652171331900,-3543.0644205885400,10730.26785019250,-13690.599941086800,21484.45206695220,0.0,0.0,0.0,0.424,-0.484,-0.8280000000000000,192.0,0.0,0.0,0.0,0.0,0.0,0.0,0.0,0.0,0.0,1.67814040593604E+09,0.0,2023-03-06 14:06:45.936
98.0,-890.247629910425,-3542.572682210530,10747.277527723000,-13696.053766733900,21490.621148421900,0.0,0.0,0.0,0.424,-0.484,-0.8280000000000000,192.0,0.0,0.0,0.0,0.0,0.0,0.0,0.0,0.0,0.0,1.67814040594007E+09,0.0,2023-03-06 14:06:45.940
99.0,-904.9327260175620,-3544.249063044680,10714.286352907000,-13693.99740624400,21481.456933195200,0.0,0.0,0.0,0.424,-0.484,-0.8280000000000000,192.0,0.0,0.0,0.0,0.0,0.0,0.0,0.0,0.0,0.0,1.67814040594407E+09,0.0,2023-03-06 14:06:45.944
100.0,-908.5760603637770,-3544.4949322336800,10688.179515383200,-13685.682557306600,21484.183846018800,0.0,0.0,0.0,0.424,-0.484,-0.8280000000000000,192.0,0.0,0.0,0.0,0.0,0.0,0.0,0.0,0.0,0.0,1.6781404059481E+09,0.0,2023-03-06 14:06:45.948
101.0,-901.7587783049080,-3544.249063044680,10723.607030344800,-13685.101411950800,21505.35094801800,0.0,0.0,0.0,0.424,-0.484,-0.8280000000000000,192.0,0.0,0.0,0.0,0.0,0.0,0.0,0.0,0.0,0.0,1.67814040595211E+09,0.0,2023-03-06 14:06:45.952
102.0,-890.5829060772550,-3538.348202508470,10751.27848998050,-13683.55914158330,21512.615264965900,0.0,0.0,0.0,0.424,-0.484,-0.8280000000000000,192.0,0.0,0.0,0.0,0.0,0.0,0.0,0.0,0.0,0.0,1.67814040595615E+09,0.0,2023-03-06 14:06:45.956
103.0,-892.0804729557600,-3535.1966065402800,10730.670181592700,-13681.480429349000,21498.488962470200,0.0,0.0,0.0,0.424,-0.484,-0.8280000000000000,192.0,0.0,0.0,0.0,0.0,0.0,0.0,0.0,0.0,0.0,1.67814040596116E+09,0.0,2023-03-06 14:06:45.961
104.0,-900.730598059964,-3538.057629830560,10695.421480586700,-13681.100449693300,21488.58713967650,0.0,0.0,0.0,0.424,-0.484,-0.8280000000000000,192.0,0.0,0.0,0.0,0.0,0.0,0.0,0.0,0.0,0.0,1.67814040596416E+09,0.0,2023-03-06 14:06:45.964
105.0,-893.8686125121850,-3539.309327520050,10722.332980910900,-13678.351185125300,21503.808677650500,0.0,0.0,0.0,0.424,-0.484,-0.8280000000000000,192.0,0.0,0.0,0.0,0.0,0.0,0.0,0.0,0.0,0.0,1.67814040596819E+09,0.0,2023-03-06 14:06:45.968
106.0,-882.0445396953270,-3537.096504818980,10752.552539414500,-13678.731164781000,21517.644407468400,0.0,0.0,0.0,0.422,-0.47800000000000000,-0.8260000000000000,192.0,13.0,48.0,241.0,16.0,230.0,48.0,0.0,0.0,0.0,1.67814040597223E+09,0.0,2023-03-06 14:06:45.972
107.0,-885.5984670637210,-3537.498836219170,10738.090960751900,-13672.204455400000,21513.06229985500,0.0,0.0,0.0,0.422,-0.47800000000000000,-0.8260000000000000,192.0,0.0,0.0,0.0,0.0,0.0,0.0,0.0,0.0,0.0,1.67814040597624E+09,0.0,2023-03-06 14:06:45.976
108.0,-896.7519875469190,-3538.8175891420400,10693.856858474800,-13670.304557121300,21498.69012817030,0.0,0.0,0.0,0.422,-0.47800000000000000,-0.8260000000000000,192.0,0.0,0.0,0.0,0.0,0.0,0.0,0.0,0.0,0.0,1.67814040598023E+09,0.0,2023-03-06 14:06:45.980
109.0,-891.4099206221010,-3540.471618231730,10711.69355055020,-13668.47171407600,21517.59970397950,0.0,0.0,0.0,0.422,-0.47800000000000000,-0.8260000000000000,192.0,0.0,0.0,0.0,0.0,0.0,0.0,0.0,0.0,0.0,1.67814040598424E+09,0.0,2023-03-06 14:06:45.984
110.0,-881.9104292285960,-3536.470655974230,10747.813969589900,-13668.069382675800,21535.145823376900,0.0,0.0,0.0,0.422,-0.47800000000000000,-0.8260000000000000,192.0,0.0,0.0,0.0,0.0,0.0,0.0,0.0,0.0,0.0,1.67814040598929E+09,0.0,2023-03-06 14:06:45.989
111.0,-882.1786501620590,-3535.531882707110,10744.751780599600,-13667.622347786700,21531.591896008500,0.0,0.0,0.0,0.422,-0.47800000000000000,-0.8260000000000000,192.0,0.0,0.0,0.0,0.0,0.0,0.0,0.0,0.0,0.0,1.67814040599231E+09,0.0,2023-03-06 14:06:45.992
112.0,-891.4322723665560,-3535.531882707110,10700.182402155700,-13666.884740219700,21513.06229985500,0.0,0.0,0.0,0.422,-0.47800000000000000,-0.8260000000000000,192.0,0.0,0.0,0.0,0.0,0.0,0.0,0.0,0.0,0.0,1.67814040599529E+09,0.0,2023-03-06 14:06:45.995
113.0,-892.2145834224920,-3536.2694902741300,10705.412710358200,-13665.074248918800,21515.990378378700,0.0,0.0,0.0,0.422,-0.47800000000000000,-0.8260000000000000,192.0,0.0,0.0,0.0,0.0,0.0,0.0,0.0,0.0,0.0,1.67814040600036E+09,0.0,2023-03-06 14:06:46.000
114.0,-887.8783449981620,-3539.8904728758900,10739.566175885900,-13661.319155850300,21528.17207910680,0.0,0.0,0.0,0.422,-0.47800000000000000,-0.8260000000000000,192.0,0.0,0.0,0.0,0.0,0.0,0.0,0.0,0.0,0.0,1.67814040600433E+09,0.0,2023-03-06 14:06:46.004
115.0,-890.1805746770590,-3545.0090223561600,10743.902414310300,-13664.247234374000,21529.624942496400,0.0,0.0,0.0,0.422,-0.47800000000000000,-0.8260000000000000,192.0,0.0,0.0,0.0,0.0,0.0,0.0,0.0,0.0,0.0,1.67814040600836E+09,0.0,2023-03-06 14:06:46.008
116.0,-906.8102725518080,-3548.6523567023700,10700.249457389100,-13666.057725674800,21516.795041179100,0.0,0.0,0.0,0.41400000000000000,-0.47800000000000000,-0.8280000000000000,192.0,12.0,240.0,241.0,16.0,230.0,32.0,0.0,0.0,0.0,1.6781404060124E+09,0.0,2023-03-06 14:06:46.012
117.0,-907.8161010522960,-3550.2393305587000,10692.962788696600,-13672.137400166700,21521.980645892700,0.0,0.0,0.0,0.41400000000000000,-0.47800000000000000,-0.8280000000000000,192.0,0.0,0.0,0.0,0.0,0.0,0.0,0.0,0.0,0.0,1.67814040601639E+09,0.0,2023-03-06 14:06:46.016
118.0,-893.1086532007040,-3544.8749118894200,10734.291164194500,-13675.445458346100,21537.001018166700,0.0,0.0,0.0,0.41400000000000000,-0.47800000000000000,-0.8280000000000000,192.0,0.0,0.0,0.0,0.0,0.0,0.0,0.0,0.0,0.0,1.67814040602052E+09,0.0,2023-03-06 14:06:46.020
119.0,-891.8122520222970,-3543.89143513339,10749.333888212900,-13674.819609501300,21540.443186812800,0.0,0.0,0.0,0.41400000000000000,-0.47800000000000000,-0.8280000000000000,192.0,0.0,0.0,0.0,0.0,0.0,0.0,0.0,0.0,0.0,1.67814040602343E+09,0.0,2023-03-06 14:06:46.023
120.0,-904.2845254283580,-3544.182007811310,10712.475861606100,-13671.869179233200,21522.91941915980,0.0,0.0,0.0,0.41400000000000000,-0.47800000000000000,-0.8280000000000000,192.0,0.0,0.0,0.0,0.0,0.0,0.0,0.0,0.0,0.0,1.67814040602862E+09,0.0,2023-03-06 14:06:46.028
121.0,-903.7927870503410,-3545.344298522990,10694.393300341800,-13672.226807144500,21511.296512043100,0.0,0.0,0.0,0.41400000000000000,-0.47800000000000000,-0.8280000000000000,192.0,0.0,0.0,0.0,0.0,0.0,0.0,0.0,0.0,0.0,1.67814040603247E+09,0.0,2023-03-06 14:06:46.032
122.0,-893.6003915787210,-3543.377345010920,10731.8324723044,-13669.99163269900,21524.081709871500,0.0,0.0,0.0,0.41400000000000000,-0.47800000000000000,-0.8280000000000000,192.0,0.0,0.0,0.0,0.0,0.0,0.0,0.0,0.0,0.0,1.6781404060365E+09,0.0,2023-03-06 14:06:46.036
123.0,-896.7519875469190,-3543.51145547765,10751.502007425100,-13669.008155942900,21536.911611188800,0.0,0.0,0.0,0.41400000000000000,-0.47800000000000000,-0.8280000000000000,192.0,0.0,0.0,0.0,0.0,0.0,0.0,0.0,0.0,0.0,1.67814040604052E+09,0.0,2023-03-06 14:06:46.040
124.0,-904.4633393840000,-3545.567815967540,10720.74600705460,-13663.979013440500,21532.50831753120,0.0,0.0,0.0,0.41400000000000000,-0.47800000000000000,-0.8280000000000000,192.0,0.0,0.0,0.0,0.0,0.0,0.0,0.0,0.0,0.0,1.67814040604366E+09,0.0,2023-03-06 14:06:46.043
125.0,-905.3350574177570,-3546.3948305123800,10691.129945651300,-13659.016926171400,21521.533611003600,0.0,0.0,0.0,0.41400000000000000,-0.47800000000000000,-0.8280000000000000,192.0,0.0,0.0,0.0,0.0,0.0,0.0,0.0,0.0,0.0,1.67814040604762E+09,0.0,2023-03-06 14:06:46.047
126.0,-894.9414962460400,-3545.925443878820,10725.238707690100,-13662.190873884100,21531.390730308400,0.0,0.0,0.0,0.422,-0.482,-0.8220000000000000,192.0,13.0,48.0,240.0,240.0,230.0,80.0,0.0,0.0,0.0,1.67814040605161E+09,0.0,2023-03-06 14:06:46.051
127.0,-886.5595920752990,-3541.052763587570,10753.290146981500,-13667.555292553300,21537.44805305580,0.0,0.0,0.0,0.422,-0.482,-0.8220000000000000,192.0,0.0,0.0,0.0,0.0,0.0,0.0,0.0,0.0,0.0,1.67814040605563E+09,0.0,2023-03-06 14:06:46.055
128.0,-895.5673450907880,-3539.666955431340,10732.681838593700,-13670.371612354700,21523.54526800460,0.0,0.0,0.0,0.422,-0.482,-0.8220000000000000,192.0,0.0,0.0,0.0,0.0,0.0,0.0,0.0,0.0,0.0,1.6781404060606E+09,0.0,2023-03-06 14:06:46.060
129.0,-903.3234004167800,-3541.2092257987500,10694.862686975300,-13674.014946700900,21507.54141897460,0.0,0.0,0.0,0.422,-0.482,-0.8220000000000000,192.0,0.0,0.0,0.0,0.0,0.0,0.0,0.0,0.0,0.0,1.67814040606463E+09,0.0,2023-03-06 14:06:46.064
130.0,-894.4050543791120,-3537.7223536637300,10723.495271622600,-13677.568874069300,21519.566657491500,0.0,0.0,0.0,0.422,-0.482,-0.8220000000000000,192.0,0.0,0.0,0.0,0.0,0.0,0.0,0.0,0.0,0.0,1.67814040606863E+09,0.0,2023-03-06 14:06:46.068
131.0,-882.5362780733440,-3529.9439465932800,10758.922786584200,-13680.027565959400,21526.16042210580,0.0,0.0,0.0,0.422,-0.482,-0.8220000000000000,192.0,0.0,0.0,0.0,0.0,0.0,0.0,0.0,0.0,0.0,1.67814040607165E+09,0.0,2023-03-06 14:06:46.071
132.0,-887.2524961534140,-3529.2063390262500,10747.992783545600,-13676.384231613200,21514.671625455800,0.0,0.0,0.0,0.422,-0.482,-0.8220000000000000,192.0,0.0,0.0,0.0,0.0,0.0,0.0,0.0,0.0,0.0,1.67814040607566E+09,0.0,2023-03-06 14:06:46.075
133.0,-897.310781158302,-3530.7709611381200,10703.669274290700,-13668.89639722070,21498.958349103700,0.0,0.0,0.0,0.422,-0.482,-0.8220000000000000,192.0,0.0,0.0,0.0,0.0,0.0,0.0,0.0,0.0,0.0,1.67814040607969E+09,0.0,2023-03-06 14:06:46.079
134.0,-891.0969961997270,-3528.580490181510,10718.242611675600,-13671.668013533100,21505.529761973600,0.0,0.0,0.0,0.422,-0.482,-0.8220000000000000,192.0,0.0,0.0,0.0,0.0,0.0,0.0,0.0,0.0,0.0,1.67814040608371E+09,0.0,2023-03-06 14:06:46.083
135.0,-879.474089082967,-3525.9206325913200,10753.580719659400,-13678.75351652550,21515.900971400900,0.0,0.0,0.0,0.422,-0.482,-0.8220000000000000,192.0,0.0,0.0,0.0,0.0,0.0,0.0,0.0,0.0,0.0,1.67814040608773E+09,0.0,2023-03-06 14:06:46.087
136.0,-882.5809815622550,-3528.356972736950,10749.982088802100,-13685.012004972900,21516.9291516458,0.0,0.0,0.0,0.42,-0.48,-0.8280000000000000,192.0,13.0,32.0,241.0,0.0,230.0,32.0,0.0,0.0,0.0,1.67814040609275E+09,0.0,2023-03-06 14:06:46.092
137.0,-894.6509235681200,-3529.5863186819900,10706.463242347600,-13678.977033970000,21501.10411657140,0.0,0.0,0.0,0.42,-0.48,-0.8280000000000000,192.0,0.0,0.0,0.0,0.0,0.0,0.0,0.0,0.0,0.0,1.67814040609682E+09,0.0,2023-03-06 14:06:46.096
138.0,-891.0299409663610,-3531.2626995161400,10712.475861606100,-13677.345356624800,21509.55307597560,0.0,0.0,0.0,0.42,-0.48,-0.8280000000000000,192.0,0.0,0.0,0.0,0.0,0.0,0.0,0.0,0.0,0.0,1.67814040609976E+09,0.0,2023-03-06 14:06:46.099
139.0,-879.3623303606900,-3529.4298564708100,10751.524359169500,-13675.42310660160,21522.673549970800,0.0,0.0,0.0,0.42,-0.48,-0.8280000000000000,192.0,0.0,0.0,0.0,0.0,0.0,0.0,0.0,0.0,0.0,1.67814040610379E+09,0.0,2023-03-06 14:06:46.103
140.0,-884.3914728631350,-3529.407504726350,10758.31928948390,-13665.454228574500,21524.372282549400,0.0,0.0,0.0,0.42,-0.48,-0.8280000000000000,192.0,0.0,0.0,0.0,0.0,0.0,0.0,0.0,0.0,0.0,1.67814040610781E+09,0.0,2023-03-06 14:06:46.107
141.0,-887.5430688313330,-3528.9828215817,10716.92385875270,-13657.049972659300,21506.177962562800,0.0,0.0,0.0,0.42,-0.48,-0.8280000000000000,192.0,0.0,0.0,0.0,0.0,0.0,0.0,0.0,0.0,0.0,1.67814040611194E+09,0.0,2023-03-06 14:06:46.111
142.0,-886.313722886291,-3529.7427808931800,10710.397149371800,-13641.917841663100,21513.889314399900,0.0,0.0,0.0,0.42,-0.48,-0.8280000000000000,192.0,0.0,0.0,0.0,0.0,0.0,0.0,0.0,0.0,0.0,1.67814040611585E+09,0.0,2023-03-06 14:06:46.115
143.0,-880.6140280501880,-3534.2354815287000,10748.261004479100,-13649.919766178100,21534.519974532100,0.0,0.0,0.0,0.42,-0.48,-0.8280000000000000,192.0,0.0,0.0,0.0,0.0,0.0,0.0,0.0,0.0,0.0,1.67814040612086E+09,0.0,2023-03-06 14:06:46.120
144.0,-880.9493042170170,-3539.1081618199500,10762.32025174140,-13680.832228759800,21525.266352327600,0.0,0.0,0.0,0.42,-0.48,-0.8280000000000000,192.0,0.0,0.0,0.0,0.0,0.0,0.0,0.0,0.0,0.0,1.6781404061249E+09,0.0,2023-03-06 14:06:46.124
145.0,-892.7733770338750,-3536.9623943522400,10722.780015800000,-13698.355996412800,21501.662910182800,0.0,0.0,0.0,0.42,-0.48,-0.8280000000000000,192.0,0.0,0.0,0.0,0.0,0.0,0.0,0.0,0.0,0.0,1.6781404061279E+09,0.0,2023-03-06 14:06:46.127
146.0,-894.9638479904950,-3534.3919437398800,10701.970541712100,-13693.550371354900,21490.10705829940,0.0,0.0,0.0,0.42,-0.48,-0.8280000000000000,192.0,0.0,0.0,0.0,0.0,0.0,0.0,0.0,0.0,0.0,1.67814040613196E+09,0.0,2023-03-06 14:06:46.131
147.0,-882.3798158621570,-3531.4862169606900,10742.538957898500,-13695.71849056700,21502.132296816400,0.0,0.0,0.0,0.426,-0.48,-0.8240000000000000,192.0,13.0,80.0,241.0,0.0,230.0,64.0,0.0,0.0,0.0,1.67814040613593E+09,0.0,2023-03-06 14:06:46.135
148.0,-879.8987722276180,-3529.8768913599100,10763.616652919800,-13711.252952963500,21503.20518055020,0.0,0.0,0.0,0.426,-0.48,-0.8240000000000000,192.0,0.0,0.0,0.0,0.0,0.0,0.0,0.0,0.0,0.0,1.67814040613998E+09,0.0,2023-03-06 14:06:46.139
149.0,-893.7792055343640,-3532.179121038810,10732.8830042938,-13714.985694287500,21485.793171619600,0.0,0.0,0.0,0.426,-0.48,-0.8240000000000000,192.0,0.0,0.0,0.0,0.0,0.0,0.0,0.0,0.0,0.0,1.67814040614397E+09,0.0,2023-03-06 14:06:46.143
150.0,-897.5119468584000,-3534.123722806420,10702.149355667800,-13700.099432480300,21485.100267541400,0.0,0.0,0.0,0.426,-0.48,-0.8240000000000000,192.0,0.0,0.0,0.0,0.0,0.0,0.0,0.0,0.0,0.0,1.67814040614801E+09,0.0,2023-03-06 14:06:46.148
151.0,-887.6771792980650,-3536.247138529680,10734.380571172300,-13699.048900490900,21503.138125316900,0.0,0.0,0.0,0.426,-0.48,-0.8240000000000000,192.0,0.0,0.0,0.0,0.0,0.0,0.0,0.0,0.0,0.0,1.67814040615301E+09,0.0,2023-03-06 14:06:46.153
152.0,-885.1067286857040,-3539.5328449646100,10760.286242996000,-13706.626141861200,21509.173096319800,0.0,0.0,0.0,0.426,-0.48,-0.8240000000000000,192.0,0.0,0.0,0.0,0.0,0.0,0.0,0.0,0.0,0.0,1.67814040615602E+09,0.0,2023-03-06 14:06:46.156
153.0,-893.8239090232740,-3544.629042700420,10738.180367729700,-13715.969171043500,21497.617244436400,0.0,0.0,0.0,0.426,-0.48,-0.8240000000000000,192.0,0.0,0.0,0.0,0.0,0.0,0.0,0.0,0.0,0.0,1.6781404061601E+09,0.0,2023-03-06 14:06:46.160
154.0,-902.1387579606480,-3547.0206793571300,10700.852954489300,-13710.71651109650,21485.189674519300,0.0,0.0,0.0,0.426,-0.48,-0.8240000000000000,192.0,0.0,0.0,0.0,0.0,0.0,0.0,0.0,0.0,0.0,1.67814040616404E+09,0.0,2023-03-06 14:06:46.164
155.0,-897.3331329027570,-3546.216016556740,10725.775149557000,-13699.741804569000,21500.54532296010,0.0,0.0,0.0,0.426,-0.48,-0.8240000000000000,192.0,0.0,0.0,0.0,0.0,0.0,0.0,0.0,0.0,0.0,1.67814040616807E+09,0.0,2023-03-06 14:06:46.168
156.0,-894.3156474012910,-3542.729144421710,10756.285280738500,-13700.300598180400,21518.694939457800,0.0,0.0,0.0,0.426,-0.48,-0.8240000000000000,192.0,0.0,0.0,0.0,0.0,0.0,0.0,0.0,0.0,0.0,1.6781404061711E+09,0.0,2023-03-06 14:06:46.171
157.0,-896.79669103583,-3542.058592088060,10745.668202122200,-13700.94879876960,21520.81835518100,0.0,0.0,0.0,0.426,-0.48,-0.8300000000000000,192.0,13.0,80.0,241.0,0.0,230.0,16.0,0.0,0.0,0.0,1.67814040617609E+09,0.0,2023-03-06 14:06:46.176
158.0,-907.8161010522960,-3544.1596560668500,10702.64109404580,-13699.071252235300,21507.608474207900,0.0,0.0,0.0,0.426,-0.48,-0.8300000000000000,192.0,0.0,0.0,0.0,0.0,0.0,0.0,0.0,0.0,0.0,1.67814040618013E+09,0.0,2023-03-06 14:06:46.180
159.0,-902.1611097051040,-3544.1596560668500,10717.415597130700,-13699.495935380000,21515.54334348960,0.0,0.0,0.0,0.426,-0.48,-0.8300000000000000,192.0,0.0,0.0,0.0,0.0,0.0,0.0,0.0,0.0,0.0,1.67814040618418E+09,0.0,2023-03-06 14:06:46.184
160.0,-890.5158508438890,-3540.963356609750,10754.005402804100,-13698.668920835100,21530.27314308560,0.0,0.0,0.0,0.426,-0.48,-0.8300000000000000,192.0,0.0,0.0,0.0,0.0,0.0,0.0,0.0,0.0,0.0,1.67814040618814E+09,0.0,2023-03-06 14:06:46.188
161.0,-885.442004852534,-3541.052763587570,10755.257100493600,-13697.99836850150,21525.55692500560,0.0,0.0,0.0,0.426,-0.48,-0.8300000000000000,192.0,0.0,0.0,0.0,0.0,0.0,0.0,0.0,0.0,0.0,1.67814040619219E+09,0.0,2023-03-06 14:06:46.192
162.0,-898.2272026809700,-3540.046935087080,10711.425329616700,-13693.66213007710,21505.7756311626,0.0,0.0,0.0,0.426,-0.48,-0.8300000000000000,192.0,0.0,0.0,0.0,0.0,0.0,0.0,0.0,0.0,0.0,1.6781404061962E+09,0.0,2023-03-06 14:06:46.196
163.0,-904.8433190397410,-3541.119818820930,10714.621629073800,-13700.345301669300,21508.9272271308,0.0,0.0,0.0,0.426,-0.48,-0.8300000000000000,192.0,0.0,0.0,0.0,0.0,0.0,0.0,0.0,0.0,0.0,1.67814040619924E+09,0.0,2023-03-06 14:06:46.199
164.0,-893.6227433231760,-3540.2257490427200,10752.932519070200,-13703.228676704000,21521.623017981400,0.0,0.0,0.0,0.426,-0.48,-0.8300000000000000,192.0,0.0,0.0,0.0,0.0,0.0,0.0,0.0,0.0,0.0,1.67814040620323E+09,0.0,2023-03-06 14:06:46.203
165.0,-885.3302461302580,-3539.3316792645100,10761.895568596800,-13698.646569090700,21525.623980238900,0.0,0.0,0.0,0.426,-0.48,-0.8300000000000000,192.0,0.0,0.0,0.0,0.0,0.0,0.0,0.0,0.0,0.0,1.67814040620824E+09,0.0,2023-03-06 14:06:46.208
166.0,-900.9094120156060,-3541.388039754400,10721.327152410400,-13699.540638868900,21513.129355088400,0.0,0.0,0.0,0.426,-0.48,-0.8300000000000000,192.0,0.0,0.0,0.0,0.0,0.0,0.0,0.0,0.0,0.0,1.67814040621228E+09,0.0,2023-03-06 14:06:46.212
167.0,-902.4963858719330,-3540.9410048652900,10709.88305924930,-13702.133441225700,21509.44131725330,0.0,0.0,0.0,0.426,-0.47000000000000000,-0.8300000000000000,192.0,13.0,80.0,241.0,80.0,230.0,16.0,0.0,0.0,0.0,1.67814040621629E+09,0.0,2023-03-06 14:06:46.216
168.0,-892.9745427339730,-3537.856464130460,10748.529225412500,-13699.764156313400,21530.74252971920,0.0,0.0,0.0,0.426,-0.47000000000000000,-0.8300000000000000,192.0,0.0,0.0,0.0,0.0,0.0,0.0,0.0,0.0,0.0,1.67814040622038E+09,0.0,2023-03-06 14:06:46.220
169.0,-893.309818900802,-3536.4259524853200,10763.79546687550,-13686.308406151300,21540.487890301700,0.0,0.0,0.0,0.426,-0.47000000000000000,-0.8300000000000000,192.0,0.0,0.0,0.0,0.0,0.0,0.0,0.0,0.0,0.0,1.67814040622331E+09,0.0,2023-03-06 14:06:46.223
170.0,-904.6198015951880,-3536.60476644096,10727.093902479900,-13685.213170673000,21525.378111049900,0.0,0.0,0.0,0.426,-0.47000000000000000,-0.8300000000000000,192.0,0.0,0.0,0.0,0.0,0.0,0.0,0.0,0.0,0.0,1.67814040622734E+09,0.0,2023-03-06 14:06:46.227
171.0,-911.6158976096990,-3536.023621085120,10705.770338269500,-13689.415298630600,21515.856267911900,0.0,0.0,0.0,0.426,-0.47000000000000000,-0.8300000000000000,192.0,0.0,0.0,0.0,0.0,0.0,0.0,0.0,0.0,0.0,1.67814040623134E+09,0.0,2023-03-06 14:06:46.231
172.0,-901.0882259712490,-3535.50953096265,10742.673068365200,-13690.108202708700,21536.59868676650,0.0,0.0,0.0,0.426,-0.47000000000000000,-0.8300000000000000,192.0,0.0,0.0,0.0,0.0,0.0,0.0,0.0,0.0,0.0,1.67814040623542E+09,0.0,2023-03-06 14:06:46.235
173.0,-895.120310201682,-3535.6883449182900,10763.79546687550,-13693.684481821600,21548.512166561100,0.0,0.0,0.0,0.426,-0.47000000000000000,-0.8300000000000000,192.0,0.0,0.0,0.0,0.0,0.0,0.0,0.0,0.0,0.0,1.67814040624038E+09,0.0,2023-03-06 14:06:46.240
174.0,-891.3652171331900,-3533.4308187283100,10733.352390927400,-13695.606731844800,21532.240096597700,0.0,0.0,0.0,0.426,-0.47000000000000000,-0.8300000000000000,192.0,0.0,0.0,0.0,0.0,0.0,0.0,0.0,0.0,0.0,1.67814040624441E+09,0.0,2023-03-06 14:06:46.244
175.0,-897.0649119692940,-3536.3365455075000,10698.01428294350,-13694.75736555550,21513.129355088400,0.0,0.0,0.0,0.426,-0.47000000000000000,-0.8300000000000000,192.0,0.0,0.0,0.0,0.0,0.0,0.0,0.0,0.0,0.0,1.67814040625147E+09,0.0,2023-03-06 14:06:46.251
176.0,-891.1640514330930,-3537.0741530745200,10730.714885081600,-13692.61159808770,21523.232343582200,0.0,0.0,0.0,0.426,-0.47000000000000000,-0.8300000000000000,192.0,0.0,0.0,0.0,0.0,0.0,0.0,0.0,0.0,0.0,1.67814040625449E+09,0.0,2023-03-06 14:06:46.254
177.0,-886.894868242129,-3536.515359463140,10759.526283684500,-13694.355034155300,21535.8834309439,0.0,0.0,0.0,0.426,-0.47200000000000000,-0.8200000000000000,192.0,13.0,80.0,241.0,64.0,230.0,96.0,0.0,0.0,0.0,1.67814040625753E+09,0.0,2023-03-06 14:06:46.257
178.0,-896.0590834688050,-3537.096504818980,10740.415542175200,-13696.031414989400,21528.77557620710,0.0,0.0,0.0,0.426,-0.47200000000000000,-0.8200000000000000,192.0,0.0,0.0,0.0,0.0,0.0,0.0,0.0,0.0,0.0,1.67814040626151E+09,0.0,2023-03-06 14:06:46.261
179.0,-906.340885918246,-3538.482312975210,10702.059948689900,-13689.929388753100,21517.30913130150,0.0,0.0,0.0,0.426,-0.47200000000000000,-0.8200000000000000,192.0,0.0,0.0,0.0,0.0,0.0,0.0,0.0,0.0,0.0,1.67814040626452E+09,0.0,2023-03-06 14:06:46.264
180.0,-897.2884294138470,-3538.3034990195600,10726.557460612900,-13693.2821504214,21530.049625641100,0.0,0.0,0.0,0.426,-0.47200000000000000,-0.8200000000000000,192.0,0.0,0.0,0.0,0.0,0.0,0.0,0.0,0.0,0.0,1.6781404062676E+09,0.0,2023-03-06 14:06:46.267
181.0,-887.0066269644050,-3537.096504818980,10759.347469728900,-13698.646569090700,21537.537460033600,0.0,0.0,0.0,0.426,-0.47200000000000000,-0.8200000000000000,192.0,0.0,0.0,0.0,0.0,0.0,0.0,0.0,0.0,0.0,1.67814040627261E+09,0.0,2023-03-06 14:06:46.272
182.0,-890.7393682884420,-3536.9847460967000,10747.255175978600,-13695.964359756000,21533.69295998730,0.0,0.0,0.0,0.426,-0.47200000000000000,-0.8200000000000000,192.0,0.0,0.0,0.0,0.0,0.0,0.0,0.0,0.0,0.0,1.67814040627659E+09,0.0,2023-03-06 14:06:46.276
183.0,-905.0891882287490,-3538.8846443754000,10702.506983579000,-13697.126650467700,21515.968026634200,0.0,0.0,0.0,0.426,-0.47200000000000000,-0.8200000000000000,192.0,0.0,0.0,0.0,0.0,0.0,0.0,0.0,0.0,0.0,1.67814040627961E+09,0.0,2023-03-06 14:06:46.279
184.0,-902.4293306385670,-3537.8117606415500,10716.387416885800,-13695.874952778200,21522.472384270700,0.0,0.0,0.0,0.426,-0.47200000000000000,-0.8200000000000000,192.0,0.0,0.0,0.0,0.0,0.0,0.0,0.0,0.0,0.0,1.67814040628359E+09,0.0,2023-03-06 14:06:46.283
185.0,-886.4925368419330,-3536.113028062940,10755.45826619370,-13697.23840919000,21531.770709964100,0.0,0.0,0.0,0.426,-0.47200000000000000,-0.8200000000000000,192.0,0.0,0.0,0.0,0.0,0.0,0.0,0.0,0.0,0.0,1.67814040628764E+09,0.0,2023-03-06 14:06:46.287
186.0,-885.442004852534,-3537.141208307890,10758.632213906300,-13700.658226091700,21529.624942496400,0.0,0.0,0.0,0.426,-0.47200000000000000,-0.8200000000000000,192.0,0.0,0.0,0.0,0.0,0.0,0.0,0.0,0.0,0.0,1.67814040629165E+09,0.0,2023-03-06 14:06:46.291
187.0,-898.6518858256200,-3536.8506356299700,10716.610934330300,-13693.125688210200,21514.850439411500,0.0,0.0,0.0,0.422,-0.47400000000000000,-0.8160000000000000,192.0,13.0,48.0,241.0,48.0,230.0,128.0,0.0,0.0,0.0,1.67814040629568E+09,0.0,2023-03-06 14:06:46.295
188.0,-898.8306997812630,-3538.1023333194700,10715.336884896400,-13693.706833566100,21519.34314004700,0.0,0.0,0.0,0.422,-0.47400000000000000,-0.8160000000000000,192.0,0.0,0.0,0.0,0.0,0.0,0.0,0.0,0.0,0.0,1.67814040630069E+09,0.0,2023-03-06 14:06:46.300
189.0,-889.3982636211230,-3537.431780985810,10753.379553959300,-13694.600903344300,21533.290628587100,0.0,0.0,0.0,0.422,-0.47400000000000000,-0.8160000000000000,192.0,0.0,0.0,0.0,0.0,0.0,0.0,0.0,0.0,0.0,1.6781404063047E+09,0.0,2023-03-06 14:06:46.304
190.0,-888.6830077985540,-3535.6659931738400,10762.767286630500,-13690.130554453200,21529.714349474200,0.0,0.0,0.0,0.422,-0.47400000000000000,-0.8160000000000000,192.0,0.0,0.0,0.0,0.0,0.0,0.0,0.0,0.0,0.0,1.6781404063077E+09,0.0,2023-03-06 14:06:46.307
191.0,-902.2505166829250,-3536.0459728295800,10721.953001255200,-13691.583417842800,21514.313997544500,0.0,0.0,0.0,0.422,-0.47400000000000000,-0.8160000000000000,192.0,0.0,0.0,0.0,0.0,0.0,0.0,0.0,0.0,0.0,1.67814040631189E+09,0.0,2023-03-06 14:06:46.311
192.0,-906.6314585961650,-3539.4657897312400,10709.033692960000,-13696.18787720060,21515.63275046740,0.0,0.0,0.0,0.422,-0.47400000000000000,-0.8160000000000000,192.0,0.0,0.0,0.0,0.0,0.0,0.0,0.0,0.0,0.0,1.67814040631576E+09,0.0,2023-03-06 14:06:46.315
193.0,-891.052292710816,-3538.6164234419400,10748.328059712400,-13697.193705701100,21531.32367507500,0.0,0.0,0.0,0.422,-0.47400000000000000,-0.8160000000000000,192.0,0.0,0.0,0.0,0.0,0.0,0.0,0.0,0.0,0.0,1.67814040631977E+09,0.0,2023-03-06 14:06:46.319
194.0,-890.5605543327990,-3538.9069961198600,10765.60595817640,-13695.80789754490,21532.038930897600,0.0,0.0,0.0,0.422,-0.47400000000000000,-0.8160000000000000,192.0,0.0,0.0,0.0,0.0,0.0,0.0,0.0,0.0,0.0,1.67814040632383E+09,0.0,2023-03-06 14:06:46.323
195.0,-901.0435224823380,-3537.856464130460,10731.340733926400,-13692.209266687500,21521.26539007010,0.0,0.0,0.0,0.422,-0.47400000000000000,-0.8160000000000000,192.0,0.0,0.0,0.0,0.0,0.0,0.0,0.0,0.0,0.0,1.67814040632779E+09,0.0,2023-03-06 14:06:46.327
196.0,-907.4137696521010,-3540.002231598170,10707.759643526000,-13695.114993466700,21512.727023688200,0.0,0.0,0.0,0.422,-0.47400000000000000,-0.8160000000000000,192.0,0.0,0.0,0.0,0.0,0.0,0.0,0.0,0.0,0.0,1.67814040633283E+09,0.0,2023-03-06 14:06:46.332
197.0,-897.2660776693910,-3539.018754842130,10745.645850377800,-13692.656301576700,21527.300361073100,0.0,0.0,0.0,0.424,-0.47800000000000000,-0.8180000000000000,192.0,13.0,64.0,241.0,16.0,230.0,112.0,0.0,0.0,0.0,1.67814040633589E+09,0.0,2023-03-06 14:06:46.335
198.0,-891.3652171331900,-3539.734010664700,10769.539865200500,-13688.074193963300,21539.213840867700,0.0,0.0,0.0,0.424,-0.47800000000000000,-0.8180000000000000,192.0,0.0,0.0,0.0,0.0,0.0,0.0,0.0,0.0,0.0,1.67814040633985E+09,0.0,2023-03-06 14:06:46.339
199.0,-902.1387579606480,-3543.7126211777500,10739.789693330500,-13690.264664919900,21525.758090705600,0.0,0.0,0.0,0.424,-0.47800000000000000,-0.8180000000000000,192.0,0.0,0.0,0.0,0.0,0.0,0.0,0.0,0.0,0.0,1.67814040634389E+09,0.0,2023-03-06 14:06:46.343
200.0,-912.6440778546430,-3545.2995950340700,10702.037596945500,-13691.337548653800,21509.55307597560,0.0,0.0,0.0,0.424,-0.47800000000000000,-0.8180000000000000,192.0,0.0,0.0,0.0,0.0,0.0,0.0,0.0,0.0,0.0,1.67814040634794E+09,0.0,2023-03-06 14:06:46.347
201.0,-900.9764672489720,-3539.9798798537100,10732.54772812700,-13688.208304430000,21528.082672129000,0.0,0.0,0.0,0.424,-0.47800000000000000,-0.8180000000000000,192.0,0.0,0.0,0.0,0.0,0.0,0.0,0.0,0.0,0.0,1.67814040635197E+09,0.0,2023-03-06 14:06:46.351
202.0,-890.6946647995310,-3532.7155629057400,10766.187103532200,-13687.001310229500,21539.526765290100,0.0,0.0,0.0,0.424,-0.47800000000000000,-0.8180000000000000,192.0,0.0,0.0,0.0,0.0,0.0,0.0,0.0,0.0,0.0,1.67814040635594E+09,0.0,2023-03-06 14:06:46.355
203.0,-898.182499192059,-3530.927423349310,10750.943213813700,-13695.047938233400,21529.44612854080,0.0,0.0,0.0,0.424,-0.47800000000000000,-0.8180000000000000,192.0,0.0,0.0,0.0,0.0,0.0,0.0,0.0,0.0,0.0,1.67814040636097E+09,0.0,2023-03-06 14:06:46.360
204.0,-905.8491475402290,-3530.703905904760,10710.620666816300,-13691.605769587300,21516.50446850120,0.0,0.0,0.0,0.424,-0.47800000000000000,-0.8180000000000000,192.0,0.0,0.0,0.0,0.0,0.0,0.0,0.0,0.0,0.0,1.67814040636399E+09,0.0,2023-03-06 14:06:46.363
205.0,-896.1931939355370,-3529.183987281800,10733.642963605300,-13686.04018521790,21521.06422437000,0.0,0.0,0.0,0.424,-0.47800000000000000,-0.8180000000000000,192.0,0.0,0.0,0.0,0.0,0.0,0.0,0.0,0.0,0.0,1.67814040636703E+09,0.0,2023-03-06 14:06:46.367
206.0,-886.9172199865840,-3528.289917503590,10768.154057044300,-13688.543580596900,21528.932038418300,0.0,0.0,0.0,0.424,-0.47800000000000000,-0.8180000000000000,192.0,0.0,0.0,0.0,0.0,0.0,0.0,0.0,0.0,0.0,1.67814040637201E+09,0.0,2023-03-06 14:06:46.372
207.0,-885.442004852534,-3530.1451122933800,10758.69926913970,-13694.913827766600,21531.07780588600,0.0,0.0,0.0,0.422,-0.47400000000000000,-0.8220000000000000,192.0,13.0,48.0,241.0,48.0,230.0,80.0,0.0,0.0,0.0,1.67814040637603E+09,0.0,2023-03-06 14:06:46.376
208.0,-894.9861997349500,-3536.403600740860,10709.503079593500,-13695.383214400200,21514.917494644800,0.0,0.0,0.0,0.422,-0.47400000000000000,-0.8220000000000000,192.0,0.0,0.0,0.0,0.0,0.0,0.0,0.0,0.0,0.0,1.67814040638005E+09,0.0,2023-03-06 14:06:46.380
209.0,-892.6616183115980,-3540.2257490427200,10717.236783175100,-13694.66795857760,21515.319826045000,0.0,0.0,0.0,0.422,-0.47400000000000000,-0.8220000000000000,192.0,0.0,0.0,0.0,0.0,0.0,0.0,0.0,0.0,0.0,1.67814040638405E+09,0.0,2023-03-06 14:06:46.384
210.0,-884.0338449518500,-3537.6329466859000,10756.039411549500,-13697.372519656700,21532.59772450900,0.0,0.0,0.0,0.422,-0.47400000000000000,-0.8220000000000000,192.0,0.0,0.0,0.0,0.0,0.0,0.0,0.0,0.0,0.0,1.67814040638909E+09,0.0,2023-03-06 14:06:46.389
211.0,-884.1232519296710,-3536.671821674330,10760.375649973800,-13695.338510911300,21535.302285588100,0.0,0.0,0.0,0.422,-0.47400000000000000,-0.8220000000000000,192.0,0.0,0.0,0.0,0.0,0.0,0.0,0.0,0.0,0.0,1.67814040639209E+09,0.0,2023-03-06 14:06:46.392
212.0,-899.1883276925480,-3538.772885653130,10716.677989563700,-13694.958531255500,21513.911666144300,0.0,0.0,0.0,0.422,-0.47400000000000000,-0.8220000000000000,192.0,0.0,0.0,0.0,0.0,0.0,0.0,0.0,0.0,0.0,1.67814040639512E+09,0.0,2023-03-06 14:06:46.395
213.0,-900.3953218931350,-3538.2587955306500,10714.666332562700,-13691.538714353900,21513.509334744100,0.0,0.0,0.0,0.422,-0.47400000000000000,-0.8220000000000000,192.0,0.0,0.0,0.0,0.0,0.0,0.0,0.0,0.0,0.0,1.67814040640013E+09,0.0,2023-03-06 14:06:46.400
214.0,-891.1416996886370,-3533.609632683950,10751.904338825300,-13691.225789931500,21527.501526773200,0.0,0.0,0.0,0.422,-0.47400000000000000,-0.8220000000000000,192.0,0.0,0.0,0.0,0.0,0.0,0.0,0.0,0.0,0.0,1.67814040640418E+09,0.0,2023-03-06 14:06:46.404
215.0,-887.6548275536090,-3530.838016371490,10761.582644174400,-13694.04210973290,21530.004922152200,0.0,0.0,0.0,0.422,-0.47400000000000000,-0.8220000000000000,192.0,0.0,0.0,0.0,0.0,0.0,0.0,0.0,0.0,0.0,1.67814040640816E+09,0.0,2023-03-06 14:06:46.408
216.0,-898.0930922142380,-3533.0284873281100,10721.595373343900,-13699.585342357800,21516.839744668000,0.0,0.0,0.0,0.422,-0.47400000000000000,-0.8220000000000000,192.0,0.0,0.0,0.0,0.0,0.0,0.0,0.0,0.0,0.0,1.67814040641218E+09,0.0,2023-03-06 14:06:46.412
217.0,-902.6304963386650,-3538.370554252930,10707.35731212580,-13699.630045846700,21511.989416121200,0.0,0.0,0.0,0.424,-0.47200000000000000,-0.8260000000000000,192.0,13.0,64.0,241.0,64.0,230.0,48.0,0.0,0.0,0.0,1.67814040641621E+09,0.0,2023-03-06 14:06:46.416
218.0,-890.8734787551740,-3538.07998157501,10746.919899811700,-13696.791374300900,21527.054491884100,0.0,0.0,0.0,0.424,-0.47200000000000000,-0.8260000000000000,192.0,0.0,0.0,0.0,0.0,0.0,0.0,0.0,0.0,0.0,1.67814040642023E+09,0.0,2023-03-06 14:06:46.420
219.0,-885.1067286857040,-3536.1353798074000,10767.975243088600,-13698.311292923800,21525.69103547230,0.0,0.0,0.0,0.424,-0.47200000000000000,-0.8260000000000000,192.0,0.0,0.0,0.0,0.0,0.0,0.0,0.0,0.0,0.0,1.67814040642328E+09,0.0,2023-03-06 14:06:46.423
220.0,-892.8851357561510,-3535.3530687514600,10735.274640950500,-13695.673787078100,21508.591950964000,0.0,0.0,0.0,0.424,-0.47200000000000000,-0.8260000000000000,192.0,0.0,0.0,0.0,0.0,0.0,0.0,0.0,0.0,0.0,1.67814040642725E+09,0.0,2023-03-06 14:06:46.427
221.0,-896.9084497581070,-3533.6990396617700,10712.006474972500,-13695.271455677900,21504.099250328500,0.0,0.0,0.0,0.424,-0.47200000000000000,-0.8260000000000000,192.0,0.0,0.0,0.0,0.0,0.0,0.0,0.0,0.0,0.0,1.67814040643227E+09,0.0,2023-03-06 14:06:46.432
