Sample Index,EXG Channel 0,EXG Channel 1,EXG Channel 2,EXG Channel 3,EXG Channel 4,EXG Channel 5,EXG Channel 6,EXG Channel 7,Accel Channel 0,Accel Channel 1,Accel Channel 2, Other, Other, Other, Other, Other, Other, Other,Analog Channel 0,Analog Channel 1,Analog Channel 2, Timestamp, Other, Timestamp (Formatted)
235.0,-804.1934137574930,-3342.7257350356300,10722.109463466300,-13736.353961986800,21501.238227038200,0.0,0.0,0.0,0.0,0.0,0.0,192.0,0.0,0.0,0.0,0.0,0.0,0.0,0.0,0.0,0.0,1.6781404657984E+09,0.0,2023-03-06 14:07:45.798
236.0,-811.3906754721020,-3341.6081478128600,10712.319399394900,-13735.10226429730,21496.991395591700,0.0,0.0,0.0,0.0,0.0,0.0,192.0,0.0,0.0,0.0,0.0,0.0,0.0,0.0,0.0,0.0,1.67814046579843E+09,0.0,2023-03-06 14:07:45.798
237.0,-820.8901668656070,-3340.0882291899,10670.387526796800,-13730.944839828600,21475.19844474770,0.0,0.0,0.0,0.0,0.0,0.0,192.0,0.0,0.0,0.0,0.0,0.0,0.0,0.0,0.0,0.0,1.67814046579844E+09,0.0,2023-03-06 14:07:45.798
238.0,-817.1127220526600,-3341.8316652574100,10686.54783803800,-13739.3937992327,21475.936052314800,0.0,0.0,0.0,0.0,0.0,0.0,192.0,0.0,0.0,0.0,0.0,0.0,0.0,0.0,0.0,0.0,1.67814046579845E+09,0.0,2023-03-06 14:07:45.798
0.0,0.0,0.0,0.0,0.0,0.0,0.0,0.0,0.0,0.41400000000000000,-0.488,-0.8200000000000000,192.0,12.0,240.0,240.0,192.0,230.0,96.0,0.0,0.0,0.0,1.67814046588192E+09,0.0,2023-03-06 14:07:45.881
1.0,-803.9251928240290,-3263.1535247747300,10835.298697388000,-13912.642170505800,21061.087675224300,0.0,0.0,0.0,0.41400000000000000,-0.488,-0.8200000000000000,192.0,0.0,0.0,0.0,0.0,0.0,0.0,0.0,0.0,0.0,1.678140465899E+09,0.0,2023-03-06 14:07:45.899
2.0,-814.3411057402020,-3261.5441991739500,10791.04224336650,-13912.798632717000,21040.725236025500,0.0,0.0,0.0,0.41400000000000000,-0.488,-0.8200000000000000,192.0,0.0,0.0,0.0,0.0,0.0,0.0,0.0,0.0,0.0,1.67814046590297E+09,0.0,2023-03-06 14:07:45.902
3.0,-809.6248876601330,-3260.4713154401000,10788.203571820700,-13908.283580337000,21033.460919077500,0.0,0.0,0.0,0.41400000000000000,-0.488,-0.8200000000000000,192.0,0.0,0.0,0.0,0.0,0.0,0.0,0.0,0.0,0.0,1.67814046590599E+09,0.0,2023-03-06 14:07:45.905
4.0,-800.34891371118,-3258.973748561590,10825.933316461200,-13912.105728638900,21039.942924969500,0.0,0.0,0.0,0.41400000000000000,-0.488,-0.8200000000000000,192.0,0.0,0.0,0.0,0.0,0.0,0.0,0.0,0.0,0.0,1.67814046591112E+09,0.0,2023-03-06 14:07:45.911
5.0,-799.8124718442530,-3256.336242715870,10837.019781711100,-13913.826812961900,21044.279163393900,0.0,0.0,0.0,0.41400000000000000,-0.488,-0.8200000000000000,192.0,0.0,0.0,0.0,0.0,0.0,0.0,0.0,0.0,0.0,1.67814046591405E+09,0.0,2023-03-06 14:07:45.914
6.0,-807.0991405366830,-3258.6384723947600,10798.194801592200,-13907.076586136400,21033.818546988800,0.0,0.0,0.0,0.41400000000000000,-0.488,-0.8200000000000000,192.0,0.0,0.0,0.0,0.0,0.0,0.0,0.0,0.0,0.0,1.67814046591705E+09,0.0,2023-03-06 14:07:45.917
7.0,-811.5247859388340,-3261.365385218310,10781.90037988430,-13906.741309969600,21026.30836085180,0.0,0.0,0.0,0.41400000000000000,-0.488,-0.8200000000000000,192.0,0.0,0.0,0.0,0.0,0.0,0.0,0.0,0.0,0.0,1.67814046592206E+09,0.0,2023-03-06 14:07:45.922
8.0,-800.8630038336520,-3260.5383706734600,10820.770063492100,-13908.685911737200,21045.463805850000,0.0,0.0,0.0,0.41600000000000000,-0.486,-0.8180000000000000,192.0,13.0,0.0,240.0,208.0,230.0,112.0,0.0,0.0,0.0,1.67814046592612E+09,0.0,2023-03-06 14:07:45.926
9.0,-796.4597101759570,-3258.5043619280300,10841.132502690900,-13906.89777218080,21057.153768200100,0.0,0.0,0.0,0.41600000000000000,-0.486,-0.8180000000000000,192.0,0.0,0.0,0.0,0.0,0.0,0.0,0.0,0.0,0.0,1.67814046593011E+09,0.0,2023-03-06 14:07:45.930
10.0,-806.4509399474790,-3260.7618881180200,10806.867278440900,-13910.742272227100,21039.920573225100,0.0,0.0,0.0,0.41600000000000000,-0.486,-0.8180000000000000,192.0,0.0,0.0,0.0,0.0,0.0,0.0,0.0,0.0,0.0,1.67814046593415E+09,0.0,2023-03-06 14:07:45.934
11.0,-814.9669545849510,-3263.0641177969100,10778.033528093500,-13910.809327460400,21027.91768645260,0.0,0.0,0.0,0.41600000000000000,-0.486,-0.8180000000000000,192.0,0.0,0.0,0.0,0.0,0.0,0.0,0.0,0.0,0.0,1.67814046593913E+09,0.0,2023-03-06 14:07:45.939
12.0,-805.154538769071,-3262.5053241855300,10814.086891899900,-13909.758795471000,21039.942924969500,0.0,0.0,0.0,0.41600000000000000,-0.486,-0.8180000000000000,192.0,0.0,0.0,0.0,0.0,0.0,0.0,0.0,0.0,0.0,1.67814046594217E+09,0.0,2023-03-06 14:07:45.942
13.0,-800.6841898780100,-3263.8240771083900,10838.897328245300,-13907.300103581000,21057.153768200100,0.0,0.0,0.0,0.41600000000000000,-0.486,-0.8180000000000000,192.0,0.0,0.0,0.0,0.0,0.0,0.0,0.0,0.0,0.0,1.67814046594517E+09,0.0,2023-03-06 14:07:45.945
14.0,-808.060265548261,-3264.516981186510,10814.243354111100,-13901.980388400600,21049.10714019620,0.0,0.0,0.0,0.41600000000000000,-0.486,-0.8180000000000000,192.0,0.0,0.0,0.0,0.0,0.0,0.0,0.0,0.0,0.0,1.67814046594922E+09,0.0,2023-03-06 14:07:45.949
15.0,-816.5315766968220,-3264.7181468866000,10780.380461261300,-13902.293312823000,21028.3647213417,0.0,0.0,0.0,0.41600000000000000,-0.486,-0.8180000000000000,192.0,0.0,0.0,0.0,0.0,0.0,0.0,0.0,0.0,0.0,1.67814046595423E+09,0.0,2023-03-06 14:07:45.954
16.0,-807.5014719368780,-3263.4664491971100,10809.169508119800,-13906.428385547200,21040.12173892520,0.0,0.0,0.0,0.41600000000000000,-0.486,-0.8180000000000000,192.0,0.0,0.0,0.0,0.0,0.0,0.0,0.0,0.0,0.0,1.67814046595829E+09,0.0,2023-03-06 14:07:45.958
17.0,-797.8678700766410,-3261.320681729400,10841.735999791100,-13905.310798324400,21047.095483195200,0.0,0.0,0.0,0.41600000000000000,-0.486,-0.8180000000000000,192.0,0.0,0.0,0.0,0.0,0.0,0.0,0.0,0.0,0.0,1.67814046596224E+09,0.0,2023-03-06 14:07:45.962
18.0,-802.9640678124510,-3262.7064898856300,10828.816691496000,-13904.282618079500,21042.848651748700,0.0,0.0,0.0,0.41400000000000000,-0.486,-0.8200000000000000,192.0,12.0,240.0,240.0,208.0,230.0,96.0,0.0,0.0,0.0,1.67814046596625E+09,0.0,2023-03-06 14:07:45.966
19.0,-813.9164225955510,-3264.0252428084900,10785.700176441700,-13903.61206574580,21028.387073086200,0.0,0.0,0.0,0.41400000000000000,-0.486,-0.8200000000000000,192.0,0.0,0.0,0.0,0.0,0.0,0.0,0.0,0.0,0.0,1.67814046596929E+09,0.0,2023-03-06 14:07:45.969
20.0,-809.5801841712220,-3264.0475945529500,10802.41928129430,-13902.136850611800,21037.55128831280,0.0,0.0,0.0,0.41400000000000000,-0.486,-0.8200000000000000,192.0,0.0,0.0,0.0,0.0,0.0,0.0,0.0,0.0,0.0,1.6781404659733E+09,0.0,2023-03-06 14:07:45.973
21.0,-798.1360910101050,-3260.918350329200,10837.422113111300,-13896.70537670920,21052.34814314220,0.0,0.0,0.0,0.41400000000000000,-0.486,-0.8200000000000000,192.0,0.0,0.0,0.0,0.0,0.0,0.0,0.0,0.0,0.0,1.67814046597741E+09,0.0,2023-03-06 14:07:45.977
22.0,-801.8911840785960,-3262.7064898856300,10832.012990953100,-13893.330263296400,21050.224727419000,0.0,0.0,0.0,0.41400000000000000,-0.486,-0.8200000000000000,192.0,0.0,0.0,0.0,0.0,0.0,0.0,0.0,0.0,0.0,1.67814046598143E+09,0.0,2023-03-06 14:07:45.981
23.0,-812.9552975839730,-3264.4052224642300,10786.191914819700,-13896.459507520100,21029.59406728670,0.0,0.0,0.0,0.41400000000000000,-0.486,-0.8200000000000000,192.0,0.0,0.0,0.0,0.0,0.0,0.0,0.0,0.0,0.0,1.67814046598644E+09,0.0,2023-03-06 14:07:45.986
24.0,-809.8260533602300,-3264.516981186510,10792.226885822600,-13899.566399999400,21029.191735886500,0.0,0.0,0.0,0.41400000000000000,-0.486,-0.8200000000000000,192.0,0.0,0.0,0.0,0.0,0.0,0.0,0.0,0.0,0.0,1.67814046599046E+09,0.0,2023-03-06 14:07:45.990
25.0,-802.4723294344340,-3265.165181775710,10829.219022896200,-13905.757833213500,21041.328733125800,0.0,0.0,0.0,0.41400000000000000,-0.486,-0.8200000000000000,192.0,0.0,0.0,0.0,0.0,0.0,0.0,0.0,0.0,0.0,1.67814046599442E+09,0.0,2023-03-06 14:07:45.994
26.0,-803.9251928240290,-3265.5675131759100,10833.644668298300,-13911.368121071800,21046.22376516150,0.0,0.0,0.0,0.41400000000000000,-0.486,-0.8200000000000000,192.0,0.0,0.0,0.0,0.0,0.0,0.0,0.0,0.0,0.0,1.67814046599743E+09,0.0,2023-03-06 14:07:45.997
27.0,-818.6549924200770,-3266.528638187490,10788.941179387700,-13910.51875478250,21027.023616674400,0.0,0.0,0.0,0.41400000000000000,-0.486,-0.8200000000000000,192.0,0.0,0.0,0.0,0.0,0.0,0.0,0.0,0.0,0.0,1.67814046600148E+09,0.0,2023-03-06 14:07:46.001
28.0,-822.3653819996570,-3270.1719725337000,10784.448478752200,-13908.596504759400,21027.023616674400,0.0,0.0,0.0,0.418,-0.486,-0.8200000000000000,192.0,13.0,16.0,240.0,208.0,230.0,96.0,0.0,0.0,0.0,1.67814046600543E+09,0.0,2023-03-06 14:07:46.005
29.0,-812.4859109504120,-3269.009681822020,10823.18405189320,-13906.786013458500,21044.323866882800,0.0,0.0,0.0,0.418,-0.486,-0.8200000000000000,192.0,0.0,0.0,0.0,0.0,0.0,0.0,0.0,0.0,0.0,1.67814046600948E+09,0.0,2023-03-06 14:07:46.009
30.0,-809.1107975376600,-3265.0087195645200,10834.963421221200,-13901.980388400600,21046.87196575070,0.0,0.0,0.0,0.418,-0.486,-0.8200000000000000,192.0,0.0,0.0,0.0,0.0,0.0,0.0,0.0,0.0,0.0,1.6781404660145E+09,0.0,2023-03-06 14:07:46.014
31.0,-815.1457685405930,-3262.4382689521600,10796.13844110230,-13901.309836066900,21033.30445686630,0.0,0.0,0.0,0.418,-0.486,-0.8200000000000000,192.0,0.0,0.0,0.0,0.0,0.0,0.0,0.0,0.0,0.0,1.67814046601853E+09,0.0,2023-03-06 14:07:46.018
32.0,-815.0787133072270,-3264.3828707197800,10779.017004849600,-13904.617894246300,21029.92934345360,0.0,0.0,0.0,0.418,-0.486,-0.8200000000000000,192.0,0.0,0.0,0.0,0.0,0.0,0.0,0.0,0.0,0.0,1.67814046602252E+09,0.0,2023-03-06 14:07:46.022
33.0,-804.0145998018500,-3262.8182486079000,10816.746749490100,-13911.301065838500,21046.559041328300,0.0,0.0,0.0,0.418,-0.486,-0.8200000000000000,192.0,0.0,0.0,0.0,0.0,0.0,0.0,0.0,0.0,0.0,1.67814046602554E+09,0.0,2023-03-06 14:07:46.025
34.0,-800.6618381335540,-3262.0135858075100,10837.71268578920,-13912.552763528000,21055.477387366000,0.0,0.0,0.0,0.418,-0.486,-0.8200000000000000,192.0,0.0,0.0,0.0,0.0,0.0,0.0,0.0,0.0,0.0,1.67814046602961E+09,0.0,2023-03-06 14:07:46.029
35.0,-810.8542336051740,-3260.8512950958400,10806.777871463000,-13905.981350658100,21047.095483195200,0.0,0.0,0.0,0.418,-0.486,-0.8200000000000000,192.0,0.0,0.0,0.0,0.0,0.0,0.0,0.0,0.0,0.0,1.67814046603358E+09,0.0,2023-03-06 14:07:46.033
36.0,-820.8901668656070,-3263.779373619480,10776.401850748300,-13907.747138470100,21035.427872589600,0.0,0.0,0.0,0.418,-0.486,-0.8200000000000000,192.0,0.0,0.0,0.0,0.0,0.0,0.0,0.0,0.0,0.0,1.67814046603765E+09,0.0,2023-03-06 14:07:46.037
37.0,-808.5073004373670,-3263.5335044304700,10812.119938387900,-13906.741309969600,21044.189756416100,0.0,0.0,0.0,0.418,-0.486,-0.8200000000000000,192.0,0.0,0.0,0.0,0.0,0.0,0.0,0.0,0.0,0.0,1.67814046604163E+09,0.0,2023-03-06 14:07:46.041
38.0,-796.3255997092250,-3259.26432123951,10841.780703280100,-13903.187382601200,21063.971050259000,0.0,0.0,0.0,0.41600000000000000,-0.484,-0.8260000000000000,192.0,13.0,0.0,240.0,224.0,230.0,48.0,0.0,0.0,0.0,1.67814046604663E+09,0.0,2023-03-06 14:07:46.046
39.0,-798.4490154324790,-3256.8950363272500,10820.993580936600,-13885.328338781400,21069.491931139500,0.0,0.0,0.0,0.41600000000000000,-0.484,-0.8260000000000000,192.0,0.0,0.0,0.0,0.0,0.0,0.0,0.0,0.0,0.0,1.67814046605066E+09,0.0,2023-03-06 14:07:46.050
40.0,-808.060265548261,-3259.331376472880,10785.56606597500,-13886.311815537400,21038.512413324400,0.0,0.0,0.0,0.41600000000000000,-0.484,-0.8260000000000000,192.0,0.0,0.0,0.0,0.0,0.0,0.0,0.0,0.0,0.0,1.67814046605374E+09,0.0,2023-03-06 14:07:46.053
41.0,-801.8241288452300,-3258.705527628130,10813.930429688700,-13906.94247566970,21032.07511092130,0.0,0.0,0.0,0.41600000000000000,-0.484,-0.8260000000000000,192.0,0.0,0.0,0.0,0.0,0.0,0.0,0.0,0.0,0.0,1.67814046605766E+09,0.0,2023-03-06 14:07:46.057
42.0,-792.5034514073670,-3253.3187572144000,10843.345325391900,-13901.153373855800,21047.184890173100,0.0,0.0,0.0,0.41600000000000000,-0.484,-0.8260000000000000,192.0,0.0,0.0,0.0,0.0,0.0,0.0,0.0,0.0,0.0,1.67814046606173E+09,0.0,2023-03-06 14:07:46.061
43.0,-796.3032479647690,-3253.3858124477600,10825.530985061000,-13881.819114901900,21058.897204267600,0.0,0.0,0.0,0.41600000000000000,-0.484,-0.8260000000000000,192.0,0.0,0.0,0.0,0.0,0.0,0.0,0.0,0.0,0.0,1.67814046606576E+09,0.0,2023-03-06 14:07:46.065
44.0,-806.9426783254960,-3257.364422960810,10779.374632760800,-13868.519826951000,21051.297611152800,0.0,0.0,0.0,0.41600000000000000,-0.484,-0.8260000000000000,192.0,0.0,0.0,0.0,0.0,0.0,0.0,0.0,0.0,0.0,1.67814046606978E+09,0.0,2023-03-06 14:07:46.069
45.0,-802.9640678124510,-3257.9232165721900,10797.814821936500,-13855.26524248900,21067.770846816400,0.0,0.0,0.0,0.41600000000000000,-0.484,-0.8260000000000000,192.0,0.0,0.0,0.0,0.0,0.0,0.0,0.0,0.0,0.0,1.67814046607477E+09,0.0,2023-03-06 14:07:46.074
46.0,-796.057378775761,-3260.225446251090,10833.756427020600,-13845.229309228600,21088.490913926500,0.0,0.0,0.0,0.41600000000000000,-0.484,-0.8260000000000000,192.0,0.0,0.0,0.0,0.0,0.0,0.0,0.0,0.0,0.0,1.6781404660778E+09,0.0,2023-03-06 14:07:46.077
47.0,-803.187585257004,-3266.0145480650100,10827.52029031760,-13843.485873161100,21086.568663903300,0.0,0.0,0.0,0.41600000000000000,-0.484,-0.8260000000000000,192.0,0.0,0.0,0.0,0.0,0.0,0.0,0.0,0.0,0.0,1.6781404660808E+09,0.0,2023-03-06 14:07:46.080
48.0,-818.6549924200770,-3269.747289389050,10781.095717083900,-13843.150596994200,21065.222747948500,0.0,0.0,0.0,0.41200000000000000,-0.486,-0.8260000000000000,192.0,12.0,224.0,240.0,208.0,230.0,48.0,0.0,0.0,0.0,1.67814046608584E+09,0.0,2023-03-06 14:07:46.085
49.0,-816.1963005299930,-3270.0155103225100,10786.437784008700,-13834.92515503470,21072.88939629670,0.0,0.0,0.0,0.41200000000000000,-0.486,-0.8260000000000000,192.0,0.0,0.0,0.0,0.0,0.0,0.0,0.0,0.0,0.0,1.67814046608984E+09,0.0,2023-03-06 14:07:46.089
50.0,-805.4674631914450,-3265.6569201537300,10825.553336805500,-13822.74345430650,21099.08564079830,0.0,0.0,0.0,0.41200000000000000,-0.486,-0.8260000000000000,192.0,0.0,0.0,0.0,0.0,0.0,0.0,0.0,0.0,0.0,1.67814046609391E+09,0.0,2023-03-06 14:07:46.093
51.0,-805.9144980805510,-3271.088394056370,10829.107264173900,-13824.285724674000,21099.01858556490,0.0,0.0,0.0,0.41200000000000000,-0.486,-0.8260000000000000,192.0,0.0,0.0,0.0,0.0,0.0,0.0,0.0,0.0,0.0,1.67814046609789E+09,0.0,2023-03-06 14:07:46.097
52.0,-817.5597569417660,-3274.687024913670,10782.995615362600,-13821.469404872600,21078.164407988100,0.0,0.0,0.0,0.41200000000000000,-0.486,-0.8260000000000000,192.0,0.0,0.0,0.0,0.0,0.0,0.0,0.0,0.0,0.0,1.67814046610193E+09,0.0,2023-03-06 14:07:46.101
53.0,-821.8512918771850,-3276.8551441258400,10774.747821658600,-13811.92520999020,21076.21980622050,0.0,0.0,0.0,0.41200000000000000,-0.486,-0.8260000000000000,192.0,0.0,0.0,0.0,0.0,0.0,0.0,0.0,0.0,0.0,1.67814046610594E+09,0.0,2023-03-06 14:07:46.105
54.0,-814.5646231847550,-3274.307045257930,10813.32693258850,-13804.862058742300,21099.398565220700,0.0,0.0,0.0,0.41200000000000000,-0.486,-0.8260000000000000,192.0,0.0,0.0,0.0,0.0,0.0,0.0,0.0,0.0,0.0,1.67814046610892E+09,0.0,2023-03-06 14:07:46.108
55.0,-809.3119632377580,-3272.1165743013100,10827.564993806500,-13797.173058649700,21108.89805661420,0.0,0.0,0.0,0.41200000000000000,-0.486,-0.8260000000000000,192.0,0.0,0.0,0.0,0.0,0.0,0.0,0.0,0.0,0.0,1.67814046611393E+09,0.0,2023-03-06 14:07:46.113
56.0,-819.2361377759150,-3274.2176382801100,10789.589379976900,-13802.023387196500,21088.781486604400,0.0,0.0,0.0,0.41200000000000000,-0.486,-0.8260000000000000,192.0,0.0,0.0,0.0,0.0,0.0,0.0,0.0,0.0,0.0,1.67814046611793E+09,0.0,2023-03-06 14:07:46.117
57.0,-825.8522541346850,-3276.3857574922800,10770.344528000900,-13808.773614022000,21080.421934178100,0.0,0.0,0.0,0.41200000000000000,-0.486,-0.8260000000000000,192.0,0.0,0.0,0.0,0.0,0.0,0.0,0.0,0.0,0.0,1.67814046612196E+09,0.0,2023-03-06 14:07:46.121
58.0,-817.7162191529540,-3277.0786615703900,10807.783699963500,-13807.007826210000,21105.142963545700,0.0,0.0,0.0,0.41000000000000000,-0.486,-0.8260000000000000,192.0,12.0,208.0,240.0,208.0,230.0,48.0,0.0,0.0,0.0,1.67814046612602E+09,0.0,2023-03-06 14:07:46.126
59.0,-813.44703596199,-3275.067004569410,10828.816691496000,-13803.006863952500,21112.764908404900,0.0,0.0,0.0,0.41000000000000000,-0.486,-0.8260000000000000,192.0,0.0,0.0,0.0,0.0,0.0,0.0,0.0,0.0,0.0,1.67814046613E+09,0.0,2023-03-06 14:07:46.129
60.0,-822.7453616553980,-3275.1564115472300,10796.943103902700,-13802.78334650800,21098.280977997900,0.0,0.0,0.0,0.41000000000000000,-0.486,-0.8260000000000000,192.0,0.0,0.0,0.0,0.0,0.0,0.0,0.0,0.0,0.0,1.67814046613402E+09,0.0,2023-03-06 14:07:46.134
61.0,-824.6899634230090,-3272.7647748905200,10766.455324465700,-13807.92424773270,21082.12066675670,0.0,0.0,0.0,0.41000000000000000,-0.486,-0.8260000000000000,192.0,0.0,0.0,0.0,0.0,0.0,0.0,0.0,0.0,0.0,1.67814046613702E+09,0.0,2023-03-06 14:07:46.137
62.0,-814.8775476071300,-3269.6131789223200,10800.340569059900,-13810.271180900500,21090.971957561000,0.0,0.0,0.0,0.41000000000000000,-0.486,-0.8260000000000000,192.0,0.0,0.0,0.0,0.0,0.0,0.0,0.0,0.0,0.0,1.67814046614106E+09,0.0,2023-03-06 14:07:46.141
63.0,-809.8037016157750,-3267.154487032230,10828.548470562500,-13806.605494809800,21100.784373376900,0.0,0.0,0.0,0.41000000000000000,-0.486,-0.8260000000000000,192.0,0.0,0.0,0.0,0.0,0.0,0.0,0.0,0.0,0.0,1.67814046614607E+09,0.0,2023-03-06 14:07:46.146
64.0,-814.6763819070320,-3268.3391294883600,10808.275438341600,-13803.565657563900,21099.398565220700,0.0,0.0,0.0,0.41000000000000000,-0.486,-0.8260000000000000,192.0,0.0,0.0,0.0,0.0,0.0,0.0,0.0,0.0,0.0,1.67814046615008E+09,0.0,2023-03-06 14:07:46.150
65.0,-820.0184488318500,-3269.523771944500,10770.232769278600,-13802.381015107800,21090.904902327600,0.0,0.0,0.0,0.41000000000000000,-0.486,-0.8260000000000000,192.0,0.0,0.0,0.0,0.0,0.0,0.0,0.0,0.0,0.0,1.67814046615517E+09,0.0,2023-03-06 14:07:46.155
66.0,-809.379018471124,-3267.802687621440,10797.770118447600,-13795.474326071100,21101.14200128820,0.0,0.0,0.0,0.41000000000000000,-0.486,-0.8260000000000000,192.0,0.0,0.0,0.0,0.0,0.0,0.0,0.0,0.0,0.0,1.67814046615812E+09,0.0,2023-03-06 14:07:46.158
67.0,-800.5277276668220,-3265.142830031260,10828.86139498490,-13794.379090592800,21108.406318236200,0.0,0.0,0.0,0.41000000000000000,-0.486,-0.8260000000000000,192.0,0.0,0.0,0.0,0.0,0.0,0.0,0.0,0.0,0.0,1.67814046616216E+09,0.0,2023-03-06 14:07:46.162
68.0,-804.6851521355100,-3266.6403969097600,10814.623333766900,-13796.21193363810,21096.157562274600,0.0,0.0,0.0,0.41000000000000000,-0.486,-0.8260000000000000,192.0,0.0,0.0,0.0,0.0,0.0,0.0,0.0,0.0,0.0,1.67814046616616E+09,0.0,2023-03-06 14:07:46.166
69.0,-815.8163208742530,-3267.4450597101500,10769.159885544800,-13790.512238802000,21079.729030100000,0.0,0.0,0.0,0.41200000000000000,-0.484,-0.8240000000000000,192.0,12.0,224.0,240.0,224.0,230.0,64.0,0.0,0.0,0.0,1.67814046617022E+09,0.0,2023-03-06 14:07:46.170
70.0,-808.2614312483590,-3264.293463741950,10783.80027816300,-13787.986491678500,21088.334451715300,0.0,0.0,0.0,0.41200000000000000,-0.484,-0.8240000000000000,192.0,0.0,0.0,0.0,0.0,0.0,0.0,0.0,0.0,0.0,1.6781404661742E+09,0.0,2023-03-06 14:07:46.174
71.0,-796.415006687046,-3262.55002767444,10818.71370300220,-13783.337328831800,21105.053556567900,0.0,0.0,0.0,0.41200000000000000,-0.484,-0.8240000000000000,192.0,0.0,0.0,0.0,0.0,0.0,0.0,0.0,0.0,0.0,1.67814046617725E+09,0.0,2023-03-06 14:07:46.177
72.0,-795.476233419923,-3262.6617863967200,10818.646647768800,-13782.666776498200,21105.99232983500,0.0,0.0,0.0,0.41200000000000000,-0.484,-0.8240000000000000,192.0,0.0,0.0,0.0,0.0,0.0,0.0,0.0,0.0,0.0,1.67814046618122E+09,0.0,2023-03-06 14:07:46.181
73.0,-806.9873818144060,-3266.036899809470,10773.56317920250,-13784.007881165500,21091.866027339200,0.0,0.0,0.0,0.41200000000000000,-0.484,-0.8240000000000000,192.0,0.0,0.0,0.0,0.0,0.0,0.0,0.0,0.0,0.0,1.67814046618525E+09,0.0,2023-03-06 14:07:46.185
74.0,-808.2167277594480,-3272.02716732349,10773.496123969100,-13789.841686468300,21089.78731510490,0.0,0.0,0.0,0.41200000000000000,-0.484,-0.8240000000000000,192.0,0.0,0.0,0.0,0.0,0.0,0.0,0.0,0.0,0.0,1.67814046618932E+09,0.0,2023-03-06 14:07:46.189
75.0,-799.7230648664310,-3270.5743039339000,10810.75648197610,-13790.44518356860,21097.051632052900,0.0,0.0,0.0,0.41200000000000000,-0.484,-0.8240000000000000,192.0,0.0,0.0,0.0,0.0,0.0,0.0,0.0,0.0,0.0,1.67814046619433E+09,0.0,2023-03-06 14:07:46.194
76.0,-802.025294545328,-3270.9319318451800,10817.32789484600,-13788.232360867500,21098.79506812040,0.0,0.0,0.0,0.41200000000000000,-0.484,-0.8240000000000000,192.0,0.0,0.0,0.0,0.0,0.0,0.0,0.0,0.0,0.0,1.67814046619829E+09,0.0,2023-03-06 14:07:46.198
77.0,-815.2128237739590,-3272.094222556860,10774.501952469600,-13789.595817279300,21077.985594032500,0.0,0.0,0.0,0.41200000000000000,-0.484,-0.8240000000000000,192.0,0.0,0.0,0.0,0.0,0.0,0.0,0.0,0.0,0.0,1.6781404662024E+09,0.0,2023-03-06 14:07:46.202
78.0,-815.413989474057,-3272.8988853572500,10767.885836110800,-13790.936921946600,21071.816512562800,0.0,0.0,0.0,0.41200000000000000,-0.484,-0.8240000000000000,192.0,0.0,0.0,0.0,0.0,0.0,0.0,0.0,0.0,0.0,1.67814046620542E+09,0.0,2023-03-06 14:07:46.205
79.0,-805.0874835357050,-3271.781298134480,10810.600019764900,-13792.590951036300,21090.681384883100,0.0,0.0,0.0,0.404,-0.482,-0.8240000000000000,192.0,12.0,160.0,240.0,240.0,230.0,64.0,0.0,0.0,0.0,1.6781404662094E+09,0.0,2023-03-06 14:07:46.209
80.0,-802.2935154787920,-3273.2788650129900,10827.877918228900,-13792.613302780800,21097.16339077510,0.0,0.0,0.0,0.404,-0.482,-0.8240000000000000,192.0,0.0,0.0,0.0,0.0,0.0,0.0,0.0,0.0,0.0,1.67814046621345E+09,0.0,2023-03-06 14:07:46.213
81.0,-816.7327423969200,-3278.576228448900,10788.024757865000,-13787.852381211800,21085.965166803000,0.0,0.0,0.0,0.404,-0.482,-0.8240000000000000,192.0,0.0,0.0,0.0,0.0,0.0,0.0,0.0,0.0,0.0,1.67814046621743E+09,0.0,2023-03-06 14:07:46.217
82.0,-822.7006581664870,-3280.4761267276000,10761.917920341200,-13787.49475330050,21082.567701645800,0.0,0.0,0.0,0.404,-0.482,-0.8240000000000000,192.0,0.0,0.0,0.0,0.0,0.0,0.0,0.0,0.0,0.0,1.67814046622241E+09,0.0,2023-03-06 14:07:46.222
83.0,-813.3129254952580,-3278.5985801933500,10798.306560314500,-13790.355776590800,21101.0302425659,0.0,0.0,0.0,0.404,-0.482,-0.8240000000000000,192.0,0.0,0.0,0.0,0.0,0.0,0.0,0.0,0.0,0.0,1.67814046622648E+09,0.0,2023-03-06 14:07:46.226
84.0,-809.0660940487500,-3279.358539504830,10820.881822214300,-13794.267331870500,21110.0826990703,0.0,0.0,0.0,0.404,-0.482,-0.8240000000000000,192.0,0.0,0.0,0.0,0.0,0.0,0.0,0.0,0.0,0.0,1.67814046622944E+09,0.0,2023-03-06 14:07:46.229
85.0,-817.4032947305790,-3280.4761267276000,10790.975188133100,-13786.48892480000,21103.35482398930,0.0,0.0,0.0,0.404,-0.482,-0.8240000000000000,192.0,0.0,0.0,0.0,0.0,0.0,0.0,0.0,0.0,0.0,1.67814046623349E+09,0.0,2023-03-06 14:07:46.233
86.0,-823.63943143361,-3279.872629627300,10757.738144128100,-13784.29845384340,21091.530751172400,0.0,0.0,0.0,0.404,-0.482,-0.8240000000000000,192.0,0.0,0.0,0.0,0.0,0.0,0.0,0.0,0.0,0.0,1.67814046623748E+09,0.0,2023-03-06 14:07:46.237
87.0,-816.3304109967250,-3279.492649971560,10789.70113869920,-13784.20904686560,21100.046765809900,0.0,0.0,0.0,0.404,-0.482,-0.8240000000000000,192.0,0.0,0.0,0.0,0.0,0.0,0.0,0.0,0.0,0.0,1.67814046624151E+09,0.0,2023-03-06 14:07:46.241
88.0,-807.926155081529,-3280.163202305220,10818.333723346400,-13789.595817279300,21108.585132191800,0.0,0.0,0.0,0.404,-0.482,-0.8240000000000000,192.0,0.0,0.0,0.0,0.0,0.0,0.0,0.0,0.0,0.0,1.67814046624553E+09,0.0,2023-03-06 14:07:46.245
89.0,-813.9164225955510,-3284.432385496190,10800.608789993400,-13798.06712842790,21092.380117461700,0.0,0.0,0.0,0.41000000000000000,-0.488,-0.8280000000000000,192.0,12.0,208.0,240.0,192.0,230.0,32.0,0.0,0.0,0.0,1.67814046624955E+09,0.0,2023-03-06 14:07:46.249
90.0,-825.8522541346850,-3285.5052692300400,10761.60499591890,-13796.860134227300,21077.560910887800,0.0,0.0,0.0,0.41000000000000000,-0.488,-0.8280000000000000,192.0,0.0,0.0,0.0,0.0,0.0,0.0,0.0,0.0,0.0,1.67814046625458E+09,0.0,2023-03-06 14:07:46.254
91.0,-817.8503296196860,-3283.4042052512400,10786.437784008700,-13794.021462681500,21093.0283180509,0.0,0.0,0.0,0.41000000000000000,-0.488,-0.8280000000000000,192.0,0.0,0.0,0.0,0.0,0.0,0.0,0.0,0.0,0.0,1.67814046625757E+09,0.0,2023-03-06 14:07:46.257
92.0,-805.1992422579820,-3280.207905794130,10819.943048947200,-13792.523895803000,21099.46562045400,0.0,0.0,0.0,0.41000000000000000,-0.488,-0.8280000000000000,192.0,0.0,0.0,0.0,0.0,0.0,0.0,0.0,0.0,0.0,1.67814046626165E+09,0.0,2023-03-06 14:07:46.261
93.0,-808.4402452040010,-3278.55387670444,10808.387197063800,-13789.39465157920,21096.716355886000,0.0,0.0,0.0,0.41000000000000000,-0.488,-0.8280000000000000,192.0,0.0,0.0,0.0,0.0,0.0,0.0,0.0,0.0,0.0,1.6781404662656E+09,0.0,2023-03-06 14:07:46.265
94.0,-821.5607191992660,-3277.928027859690,10762.789638375000,-13785.147820132700,21080.73485860050,0.0,0.0,0.0,0.41000000000000000,-0.488,-0.8280000000000000,192.0,0.0,0.0,0.0,0.0,0.0,0.0,0.0,0.0,0.0,1.67814046626962E+09,0.0,2023-03-06 14:07:46.269
95.0,-819.1467307980930,-3280.2526092830400,10776.088926325900,-13788.031195167400,21088.759134859900,0.0,0.0,0.0,0.41000000000000000,-0.488,-0.8280000000000000,192.0,0.0,0.0,0.0,0.0,0.0,0.0,0.0,0.0,0.0,1.67814046627367E+09,0.0,2023-03-06 14:07:46.273
96.0,-807.5014719368780,-3278.1515453042400,10813.192822121700,-13790.10990740180,21105.0312048234,0.0,0.0,0.0,0.41000000000000000,-0.488,-0.8280000000000000,192.0,0.0,0.0,0.0,0.0,0.0,0.0,0.0,0.0,0.0,1.67814046627767E+09,0.0,2023-03-06 14:07:46.277
97.0,-806.9426783254960,-3275.916370858710,10812.879897699300,-13787.137125389200,21111.692024671100,0.0,0.0,0.0,0.41000000000000000,-0.488,-0.8280000000000000,192.0,0.0,0.0,0.0,0.0,0.0,0.0,0.0,0.0,0.0,1.67814046628172E+09,0.0,2023-03-06 14:07:46.281
98.0,-819.8172831317520,-3276.899847614750,10769.763382645100,-13789.506410301500,21092.156600017100,0.0,0.0,0.0,0.41000000000000000,-0.488,-0.8280000000000000,192.0,0.0,0.0,0.0,0.0,0.0,0.0,0.0,0.0,0.0,1.67814046628569E+09,0.0,2023-03-06 14:07:46.285
99.0,-820.6666494210540,-3279.6714639272100,10771.50681871260,-13800.72698601810,21072.75528582990,0.0,0.0,0.0,0.41200000000000000,-0.488,-0.8240000000000000,192.0,12.0,224.0,240.0,192.0,230.0,64.0,0.0,0.0,0.0,1.6781404662887E+09,0.0,2023-03-06 14:07:46.288
100.0,-810.8989370940850,-3277.391585992760,10809.214211608700,-13807.54426807690,21080.712506856000,0.0,0.0,0.0,0.41200000000000000,-0.488,-0.8240000000000000,192.0,0.0,0.0,0.0,0.0,0.0,0.0,0.0,0.0,0.0,1.67814046629375E+09,0.0,2023-03-06 14:07:46.293
101.0,-807.1661957700490,-3276.0728330699000,10819.18308963570,-13810.606457067300,21082.567701645800,0.0,0.0,0.0,0.41200000000000000,-0.488,-0.8240000000000000,192.0,0.0,0.0,0.0,0.0,0.0,0.0,0.0,0.0,0.0,1.67814046629773E+09,0.0,2023-03-06 14:07:46.297
102.0,-819.2584895203700,-3276.4751644701000,10777.474734482100,-13812.72987279060,21059.679515323600,0.0,0.0,0.0,0.41200000000000000,-0.488,-0.8240000000000000,192.0,0.0,0.0,0.0,0.0,0.0,0.0,0.0,0.0,0.0,1.67814046630182E+09,0.0,2023-03-06 14:07:46.301
103.0,-822.0077540883730,-3276.6986819146500,10763.773115131000,-13809.935904733600,21061.288840924400,0.0,0.0,0.0,0.41200000000000000,-0.488,-0.8240000000000000,192.0,0.0,0.0,0.0,0.0,0.0,0.0,0.0,0.0,0.0,1.67814046630578E+09,0.0,2023-03-06 14:07:46.305
104.0,-810.3401434827020,-3274.977597591590,10802.598095249900,-13806.471384343100,21080.019602777900,0.0,0.0,0.0,0.41200000000000000,-0.488,-0.8240000000000000,192.0,0.0,0.0,0.0,0.0,0.0,0.0,0.0,0.0,0.0,1.67814046630981E+09,0.0,2023-03-06 14:07:46.309
105.0,-807.0544370477720,-3274.910542358230,10819.51836580260,-13807.387805865700,21087.50743717040,0.0,0.0,0.0,0.41200000000000000,-0.488,-0.8240000000000000,192.0,0.0,0.0,0.0,0.0,0.0,0.0,0.0,0.0,0.0,1.67814046631379E+09,0.0,2023-03-06 14:07:46.313
106.0,-816.9339080970180,-3275.8046121364400,10782.727394429100,-13803.900933730700,21073.17996897460,0.0,0.0,0.0,0.41200000000000000,-0.488,-0.8240000000000000,192.0,0.0,0.0,0.0,0.0,0.0,0.0,0.0,0.0,0.0,1.67814046631682E+09,0.0,2023-03-06 14:07:46.316
107.0,-820.1302075541270,-3274.9552458471400,10758.051068550500,-13799.274122628500,21062.987573503000,0.0,0.0,0.0,0.41200000000000000,-0.488,-0.8240000000000000,192.0,0.0,0.0,0.0,0.0,0.0,0.0,0.0,0.0,0.0,1.6781404663209E+09,0.0,2023-03-06 14:07:46.320
108.0,-808.2167277594480,-3273.1447545462600,10794.015025379100,-13797.485983072000,21074.655184108600,0.0,0.0,0.0,0.41200000000000000,-0.488,-0.8240000000000000,192.0,0.0,0.0,0.0,0.0,0.0,0.0,0.0,0.0,0.0,1.67814046632588E+09,0.0,2023-03-06 14:07:46.325
109.0,-803.2769922348250,-3272.675367912690,10818.266668113100,-13804.415023853200,21079.214939977500,0.0,0.0,0.0,0.41400000000000000,-0.484,-0.8240000000000000,192.0,12.0,240.0,240.0,224.0,230.0,64.0,0.0,0.0,0.0,1.6781404663299E+09,0.0,2023-03-06 14:07:46.329
110.0,-814.251698762381,-3278.7103389156300,10792.003368378100,-13808.594800066300,21064.97687875950,0.0,0.0,0.0,0.41400000000000000,-0.484,-0.8240000000000000,192.0,0.0,0.0,0.0,0.0,0.0,0.0,0.0,0.0,0.0,1.67814046633389E+09,0.0,2023-03-06 14:07:46.333
111.0,-826.0981233236940,-3282.6218941953100,10759.436876706700,-13809.198297166600,21049.621230318700,0.0,0.0,0.0,0.41400000000000000,-0.484,-0.8240000000000000,192.0,0.0,0.0,0.0,0.0,0.0,0.0,0.0,0.0,0.0,1.67814046633795E+09,0.0,2023-03-06 14:07:46.337
112.0,-816.6656871635540,-3281.3701965058100,10791.958664889200,-13808.393634366200,21062.361724658200,0.0,0.0,0.0,0.41400000000000000,-0.484,-0.8240000000000000,192.0,0.0,0.0,0.0,0.0,0.0,0.0,0.0,0.0,0.0,1.67814046634094E+09,0.0,2023-03-06 14:07:46.340
113.0,-808.7084661374650,-3280.140850560770,10823.295810615500,-13807.83484075490,21072.241195707500,0.0,0.0,0.0,0.41400000000000000,-0.484,-0.8240000000000000,192.0,0.0,0.0,0.0,0.0,0.0,0.0,0.0,0.0,0.0,1.67814046634505E+09,0.0,2023-03-06 14:07:46.345
114.0,-818.7891028868080,-3284.74530991856,10803.894496428300,-13807.052529698900,21066.943832271600,0.0,0.0,0.0,0.41400000000000000,-0.484,-0.8240000000000000,192.0,0.0,0.0,0.0,0.0,0.0,0.0,0.0,0.0,0.0,1.67814046634899E+09,0.0,2023-03-06 14:07:46.348
115.0,-830.1884925590150,-3285.482917485590,10763.840170364400,-13804.63854129770,21050.381189630200,0.0,0.0,0.0,0.41400000000000000,-0.484,-0.8240000000000000,192.0,0.0,0.0,0.0,0.0,0.0,0.0,0.0,0.0,0.0,1.67814046635404E+09,0.0,2023-03-06 14:07:46.354
116.0,-827.863911135663,-3286.354635519340,10785.789583419500,-13807.231343654600,21056.438512377600,0.0,0.0,0.0,0.41400000000000000,-0.484,-0.8240000000000000,192.0,0.0,0.0,0.0,0.0,0.0,0.0,0.0,0.0,0.0,1.67814046635801E+09,0.0,2023-03-06 14:07:46.358
117.0,-821.2701465213470,-3285.348807018850,10819.89834545830,-13804.34796861980,21072.55412012980,0.0,0.0,0.0,0.41400000000000000,-0.484,-0.8240000000000000,192.0,0.0,0.0,0.0,0.0,0.0,0.0,0.0,0.0,0.0,1.67814046636203E+09,0.0,2023-03-06 14:07:46.362
118.0,-813.0670563062500,-3285.3041035299400,10812.119938387900,-13802.224552896600,21070.74362882900,0.0,0.0,0.0,0.41400000000000000,-0.484,-0.8240000000000000,192.0,0.0,0.0,0.0,0.0,0.0,0.0,0.0,0.0,0.0,1.67814046636608E+09,0.0,2023-03-06 14:07:46.366
119.0,-818.7891028868080,-3287.1816500641900,10766.052993065500,-13805.487907587000,21046.804910517300,0.0,0.0,0.0,0.41200000000000000,-0.488,-0.8280000000000000,192.0,12.0,224.0,240.0,192.0,230.0,32.0,0.0,0.0,0.0,1.67814046636907E+09,0.0,2023-03-06 14:07:46.369
120.0,-817.4927017084010,-3286.354635519340,10772.825571635400,-13806.180811665200,21052.191680931100,0.0,0.0,0.0,0.41200000000000000,-0.488,-0.8280000000000000,192.0,0.0,0.0,0.0,0.0,0.0,0.0,0.0,0.0,0.0,1.67814046637306E+09,0.0,2023-03-06 14:07:46.373
121.0,-806.8756230921300,-3280.073795327400,10809.258915097600,-13807.052529698900,21072.218843963000,0.0,0.0,0.0,0.41200000000000000,-0.488,-0.8280000000000000,192.0,0.0,0.0,0.0,0.0,0.0,0.0,0.0,0.0,0.0,1.67814046637708E+09,0.0,2023-03-06 14:07:46.377
122.0,-802.4052742010680,-3277.0786615703900,10811.784662221000,-13808.125413432800,21065.93800377110,0.0,0.0,0.0,0.41200000000000000,-0.488,-0.8280000000000000,192.0,0.0,0.0,0.0,0.0,0.0,0.0,0.0,0.0,0.0,1.67814046638112E+09,0.0,2023-03-06 14:07:46.381
123.0,-815.8386726187080,-3279.6938156716600,10767.818780877400,-13806.560791320900,21046.804910517300,0.0,0.0,0.0,0.41200000000000000,-0.488,-0.8280000000000000,192.0,0.0,0.0,0.0,0.0,0.0,0.0,0.0,0.0,0.0,1.67814046638618E+09,0.0,2023-03-06 14:07:46.386
124.0,-815.7492656408870,-3280.185554049680,10767.908187855300,-13808.907724488700,21046.73785528400,0.0,0.0,0.0,0.41200000000000000,-0.488,-0.8280000000000000,192.0,0.0,0.0,0.0,0.0,0.0,0.0,0.0,0.0,0.0,1.67814046639016E+09,0.0,2023-03-06 14:07:46.390
125.0,-806.4732916919340,-3276.273998770000,10808.633066252800,-13808.2595238995,21056.371457144200,0.0,0.0,0.0,0.41200000000000000,-0.488,-0.8280000000000000,192.0,0.0,0.0,0.0,0.0,0.0,0.0,0.0,0.0,0.0,1.67814046639421E+09,0.0,2023-03-06 14:07:46.394
126.0,-806.026256802828,-3276.1175365588100,10818.981923935600,-13804.482079086600,21060.41712289060,0.0,0.0,0.0,0.41200000000000000,-0.488,-0.8280000000000000,192.0,0.0,0.0,0.0,0.0,0.0,0.0,0.0,0.0,0.0,1.67814046639725E+09,0.0,2023-03-06 14:07:46.397
127.0,-817.4479982194900,-3276.8551441258400,10776.379499003800,-13806.694901787600,21044.145052927100,0.0,0.0,0.0,0.41200000000000000,-0.488,-0.8280000000000000,192.0,0.0,0.0,0.0,0.0,0.0,0.0,0.0,0.0,0.0,1.67814046640118E+09,0.0,2023-03-06 14:07:46.401
128.0,-819.9066901095740,-3276.4528127256400,10761.873216852300,-13804.370320364300,21043.474500593500,0.0,0.0,0.0,0.41200000000000000,-0.488,-0.8280000000000000,192.0,0.0,0.0,0.0,0.0,0.0,0.0,0.0,0.0,0.0,1.67814046640523E+09,0.0,2023-03-06 14:07:46.405
129.0,-808.3955417150910,-3276.653978425740,10802.285170827500,-13805.622018053800,21058.226651934000,0.0,0.0,0.0,0.41600000000000000,-0.482,-0.8240000000000000,192.0,13.0,0.0,240.0,240.0,230.0,64.0,0.0,0.0,0.0,1.67814046640921E+09,0.0,2023-03-06 14:07:46.409
130.0,-804.34987596868,-3277.235123781580,10823.340514104400,-13800.928151718200,21063.92634677010,0.0,0.0,0.0,0.41600000000000000,-0.482,-0.8240000000000000,192.0,0.0,0.0,0.0,0.0,0.0,0.0,0.0,0.0,0.0,1.67814046641331E+09,0.0,2023-03-06 14:07:46.413
131.0,-812.6200214171440,-3276.966902848110,10790.528153244000,-13799.274122628500,21039.942924969500,0.0,0.0,0.0,0.41600000000000000,-0.482,-0.8240000000000000,192.0,0.0,0.0,0.0,0.0,0.0,0.0,0.0,0.0,0.0,1.67814046641828E+09,0.0,2023-03-06 14:07:46.418
132.0,-817.3362394972130,-3277.235123781580,10764.063687809000,-13807.454861099100,21015.512468279900,0.0,0.0,0.0,0.41600000000000000,-0.482,-0.8240000000000000,192.0,0.0,0.0,0.0,0.0,0.0,0.0,0.0,0.0,0.0,1.67814046642257E+09,0.0,2023-03-06 14:07:46.422
133.0,-807.1438440255930,-3275.8269638808900,10798.440670781200,-13807.700730288100,21031.58337254330,0.0,0.0,0.0,0.41600000000000000,-0.482,-0.8240000000000000,192.0,0.0,0.0,0.0,0.0,0.0,0.0,0.0,0.0,0.0,1.67814046642542E+09,0.0,2023-03-06 14:07:46.425
134.0,-798.8736985771300,-3275.8940191142600,10824.61456353840,-13811.321712889900,21041.820471503800,0.0,0.0,0.0,0.41600000000000000,-0.482,-0.8240000000000000,192.0,0.0,0.0,0.0,0.0,0.0,0.0,0.0,0.0,0.0,1.67814046642939E+09,0.0,2023-03-06 14:07:46.429
135.0,-810.0719225492390,-3278.7550424045400,10798.060691125500,-13813.020445468500,21030.041102175800,0.0,0.0,0.0,0.41600000000000000,-0.482,-0.8240000000000000,192.0,0.0,0.0,0.0,0.0,0.0,0.0,0.0,0.0,0.0,1.67814046643338E+09,0.0,2023-03-06 14:07:46.433
136.0,-820.1078558096720,-3280.74434766106,10760.040373807000,-13805.934942476100,21021.212163116,0.0,0.0,0.0,0.41600000000000000,-0.482,-0.8240000000000000,192.0,0.0,0.0,0.0,0.0,0.0,0.0,0.0,0.0,0.0,1.67814046643739E+09,0.0,2023-03-06 14:07:46.437
137.0,-808.5520039262780,-3278.911504615730,10787.711833442700,-13800.838744740300,21040.68053253660,0.0,0.0,0.0,0.41600000000000000,-0.482,-0.8240000000000000,192.0,0.0,0.0,0.0,0.0,0.0,0.0,0.0,0.0,0.0,1.67814046644139E+09,0.0,2023-03-06 14:07:46.441
138.0,-801.7794253563200,-3278.3080075154300,10816.031493667500,-13802.358663363300,21049.330657640800,0.0,0.0,0.0,0.41600000000000000,-0.482,-0.8240000000000000,192.0,0.0,0.0,0.0,0.0,0.0,0.0,0.0,0.0,0.0,1.67814046644643E+09,0.0,2023-03-06 14:07:46.446
139.0,-810.2283847604260,-3281.750176161550,10799.580609748400,-13801.755166263000,21040.83699474780,0.0,0.0,0.0,0.41600000000000000,-0.47800000000000000,-0.8260000000000000,192.0,13.0,0.0,241.0,16.0,230.0,48.0,0.0,0.0,0.0,1.67814046645044E+09,0.0,2023-03-06 14:07:46.450
140.0,-820.8454633766970,-3281.7948796504600,10759.995670318100,-13798.223590639100,21029.325846353300,0.0,0.0,0.0,0.41600000000000000,-0.47800000000000000,-0.8260000000000000,192.0,0.0,0.0,0.0,0.0,0.0,0.0,0.0,0.0,0.0,1.67814046645346E+09,0.0,2023-03-06 14:07:46.453
141.0,-815.5480999407890,-3278.4197662377100,10781.65451069530,-13796.524858060500,21031.82924173230,0.0,0.0,0.0,0.41600000000000000,-0.47800000000000000,-0.8260000000000000,192.0,0.0,0.0,0.0,0.0,0.0,0.0,0.0,0.0,0.0,1.67814046645745E+09,0.0,2023-03-06 14:07:46.457
142.0,-807.0097335588620,-3277.8609726263300,10816.076197156500,-13799.609398795300,21039.69705578050,0.0,0.0,0.0,0.41600000000000000,-0.47800000000000000,-0.8260000000000000,192.0,0.0,0.0,0.0,0.0,0.0,0.0,0.0,0.0,0.0,1.67814046646153E+09,0.0,2023-03-06 14:07:46.461
143.0,-804.3275242242250,-3277.972731348600,10808.722473230700,-13799.989378451000,21035.092596422700,0.0,0.0,0.0,0.41600000000000000,-0.47800000000000000,-0.8260000000000000,192.0,0.0,0.0,0.0,0.0,0.0,0.0,0.0,0.0,0.0,1.67814046646548E+09,0.0,2023-03-06 14:07:46.465
144.0,-815.1010650516830,-3277.682158670680,10763.79546687550,-13800.414061595700,21018.082918892300,0.0,0.0,0.0,0.41600000000000000,-0.47800000000000000,-0.8260000000000000,192.0,0.0,0.0,0.0,0.0,0.0,0.0,0.0,0.0,0.0,1.67814046646952E+09,0.0,2023-03-06 14:07:46.469
145.0,-813.4246842175350,-3278.1515453042400,10774.166676302800,-13802.11279417430,21031.136337654200,0.0,0.0,0.0,0.41600000000000000,-0.47800000000000000,-0.8260000000000000,192.0,0.0,0.0,0.0,0.0,0.0,0.0,0.0,0.0,0.0,1.6781404664736E+09,0.0,2023-03-06 14:07:46.473
146.0,-803.6793236350210,-3274.329397002390,10811.650551754300,-13807.901895988200,21051.78934953090,0.0,0.0,0.0,0.41600000000000000,-0.47800000000000000,-0.8260000000000000,192.0,0.0,0.0,0.0,0.0,0.0,0.0,0.0,0.0,0.0,1.6781404664776E+09,0.0,2023-03-06 14:07:46.477
147.0,-805.221594002437,-3273.7929551354600,10811.47173779870,-13807.141936676700,21049.956506485500,0.0,0.0,0.0,0.41600000000000000,-0.47800000000000000,-0.8260000000000000,192.0,0.0,0.0,0.0,0.0,0.0,0.0,0.0,0.0,0.0,1.6781404664806E+09,0.0,2023-03-06 14:07:46.480
148.0,-818.0067918308730,-3275.871667369800,10764.957757587200,-13804.616189553300,21016.048910146800,0.0,0.0,0.0,0.41600000000000000,-0.47800000000000000,-0.8260000000000000,192.0,0.0,0.0,0.0,0.0,0.0,0.0,0.0,0.0,0.0,1.67814046648558E+09,0.0,2023-03-06 14:07:46.485
149.0,-821.5607191992660,-3280.207905794130,10759.03454530650,-13805.152631420200,21016.093613635700,0.0,0.0,0.0,0.41600000000000000,-0.484,-0.8280000000000000,192.0,13.0,0.0,240.0,224.0,230.0,32.0,0.0,0.0,0.0,1.6781404664896E+09,0.0,2023-03-06 14:07:46.489
150.0,-813.5140911953560,-3282.107804072830,10797.256028325100,-13803.051567441400,21035.427872589600,0.0,0.0,0.0,0.41600000000000000,-0.484,-0.8280000000000000,192.0,0.0,0.0,0.0,0.0,0.0,0.0,0.0,0.0,0.0,1.67814046649375E+09,0.0,2023-03-06 14:07:46.493
151.0,-811.0553993052720,-3280.6549406832400,10809.705949986700,-13804.593837808800,21036.143128412100,0.0,0.0,0.0,0.41600000000000000,-0.484,-0.8280000000000000,192.0,0.0,0.0,0.0,0.0,0.0,0.0,0.0,0.0,0.0,1.67814046649764E+09,0.0,2023-03-06 14:07:46.497
152.0,-821.5160157103560,-3281.481955228090,10771.462115223700,-13804.97381746460,21016.428889802600,0.0,0.0,0.0,0.41600000000000000,-0.484,-0.8280000000000000,192.0,0.0,0.0,0.0,0.0,0.0,0.0,0.0,0.0,0.0,1.6781404665017E+09,0.0,2023-03-06 14:07:46.501
153.0,-821.7171814104540,-3278.3974144932500,10758.31928948390,-13799.452936584100,21012.11500312270,0.0,0.0,0.0,0.41600000000000000,-0.484,-0.8280000000000000,192.0,0.0,0.0,0.0,0.0,0.0,0.0,0.0,0.0,0.0,1.6781404665047E+09,0.0,2023-03-06 14:07:46.504
154.0,-807.6132306591550,-3274.2399900245700,10798.954760903700,-13806.449032598600,21023.849668961700,0.0,0.0,0.0,0.41600000000000000,-0.484,-0.8280000000000000,192.0,0.0,0.0,0.0,0.0,0.0,0.0,0.0,0.0,0.0,1.67814046650869E+09,0.0,2023-03-06 14:07:46.508
155.0,-802.5840881567110,-3273.1671062907100,10816.94791519020,-13816.037930969900,21025.146070140100,0.0,0.0,0.0,0.41600000000000000,-0.484,-0.8280000000000000,192.0,0.0,0.0,0.0,0.0,0.0,0.0,0.0,0.0,0.0,1.67814046651274E+09,0.0,2023-03-06 14:07:46.512
156.0,-817.0009633303840,-3274.5752661914000,10781.430993250700,-13815.814413525400,21007.59995074270,0.0,0.0,0.0,0.41600000000000000,-0.484,-0.8280000000000000,192.0,0.0,0.0,0.0,0.0,0.0,0.0,0.0,0.0,0.0,1.67814046651778E+09,0.0,2023-03-06 14:07:46.517
157.0,-817.1574255415710,-3273.1224028018000,10754.072458037400,-13821.111776961300,20994.278311047400,0.0,0.0,0.0,0.41600000000000000,-0.484,-0.8280000000000000,192.0,0.0,0.0,0.0,0.0,0.0,0.0,0.0,0.0,0.0,1.67814046652174E+09,0.0,2023-03-06 14:07:46.521
158.0,-800.1700997555380,-3269.769641133500,10790.259932310600,-13824.375131651800,21016.719462480500,0.0,0.0,0.0,0.41600000000000000,-0.484,-0.8280000000000000,192.0,0.0,0.0,0.0,0.0,0.0,0.0,0.0,0.0,0.0,1.67814046652577E+09,0.0,2023-03-06 14:07:46.525
159.0,-794.9844950419060,-3270.127269044790,10815.070368656000,-13819.949486249600,21029.92934345360,0.0,0.0,0.0,0.41600000000000000,-0.484,-0.8280000000000000,192.0,0.0,0.0,0.0,0.0,0.0,0.0,0.0,0.0,0.0,1.67814046652979E+09,0.0,2023-03-06 14:07:46.529
160.0,-808.9319835820180,-3275.223466780600,10788.024757865000,-13818.161346693200,21014.64075024610,0.0,0.0,0.0,0.41400000000000000,-0.484,-0.8280000000000000,192.0,12.0,240.0,240.0,224.0,230.0,32.0,0.0,0.0,0.0,1.6781404665328E+09,0.0,2023-03-06 14:07:46.532
161.0,-822.2983267662920,-3280.297312771950,10748.998612046100,-13812.238134412500,21000.603854728200,0.0,0.0,0.0,0.41400000000000000,-0.484,-0.8280000000000000,192.0,0.0,0.0,0.0,0.0,0.0,0.0,0.0,0.0,0.0,1.67814046653683E+09,0.0,2023-03-06 14:07:46.536
162.0,-814.832844118219,-3281.034920338980,10775.284263525500,-13816.596724581300,21009.723366466000,0.0,0.0,0.0,0.41400000000000000,-0.484,-0.8280000000000000,192.0,0.0,0.0,0.0,0.0,0.0,0.0,0.0,0.0,0.0,1.67814046654095E+09,0.0,2023-03-06 14:07:46.540
163.0,-807.1661957700490,-3280.3196645164100,10806.599057507400,-13816.864945514800,21023.40263407260,0.0,0.0,0.0,0.41400000000000000,-0.484,-0.8280000000000000,192.0,0.0,0.0,0.0,0.0,0.0,0.0,0.0,0.0,0.0,1.67814046654486E+09,0.0,2023-03-06 14:07:46.544
164.0,-811.5471376832890,-3280.0290918384900,10794.015025379100,-13817.669608315200,21016.20537235800,0.0,0.0,0.0,0.41400000000000000,-0.484,-0.8280000000000000,192.0,0.0,0.0,0.0,0.0,0.0,0.0,0.0,0.0,0.0,1.67814046654987E+09,0.0,2023-03-06 14:07:46.549
165.0,-822.5218442108450,-3281.3478447613500,10754.184216759700,-13820.195355438600,21003.420174529600,0.0,0.0,0.0,0.41400000000000000,-0.484,-0.8280000000000000,192.0,0.0,0.0,0.0,0.0,0.0,0.0,0.0,0.0,0.0,1.67814046655391E+09,0.0,2023-03-06 14:07:46.553
166.0,-819.8396348762080,-3281.549010461450,10774.457248980700,-13813.132204190800,21017.30060783630,0.0,0.0,0.0,0.41400000000000000,-0.484,-0.8280000000000000,192.0,0.0,0.0,0.0,0.0,0.0,0.0,0.0,0.0,0.0,1.67814046655791E+09,0.0,2023-03-06 14:07:46.557
167.0,-813.9164225955510,-3279.850277882850,10810.734130231600,-13809.310055888900,21023.849668961700,0.0,0.0,0.0,0.41400000000000000,-0.484,-0.8280000000000000,192.0,0.0,0.0,0.0,0.0,0.0,0.0,0.0,0.0,0.0,1.67814046656095E+09,0.0,2023-03-06 14:07:46.560
168.0,-813.6482016620880,-3279.6938156716600,10806.397891807300,-13817.222573426100,21011.91383742260,0.0,0.0,0.0,0.41400000000000000,-0.484,-0.8280000000000000,192.0,0.0,0.0,0.0,0.0,0.0,0.0,0.0,0.0,0.0,1.67814046656494E+09,0.0,2023-03-06 14:07:46.564
169.0,-817.6491639195880,-3276.36340574782,10759.481580195600,-13815.099157702800,20993.093668591200,0.0,0.0,0.0,0.41400000000000000,-0.484,-0.8280000000000000,192.0,0.0,0.0,0.0,0.0,0.0,0.0,0.0,0.0,0.0,1.67814046656898E+09,0.0,2023-03-06 14:07:46.568
170.0,-817.380942986124,-3282.6665976842200,10764.957757587200,-13814.093329202300,20999.48626750540,0.0,0.0,0.0,0.41200000000000000,-0.486,-0.8240000000000000,192.0,12.0,224.0,240.0,208.0,230.0,64.0,0.0,0.0,0.0,1.67814046657299E+09,0.0,2023-03-06 14:07:46.572
171.0,-805.9144980805510,-3280.5655337054200,10804.475641784100,-13807.097233187800,21015.959503169,0.0,0.0,0.0,0.41200000000000000,-0.486,-0.8240000000000000,192.0,0.0,0.0,0.0,0.0,0.0,0.0,0.0,0.0,0.0,1.67814046657699E+09,0.0,2023-03-06 14:07:46.576
172.0,-804.3722277131350,-3280.0290918384900,10810.622371509400,-13803.990340708500,21013.992549656900,0.0,0.0,0.0,0.41200000000000000,-0.486,-0.8240000000000000,192.0,0.0,0.0,0.0,0.0,0.0,0.0,0.0,0.0,0.0,1.67814046658203E+09,0.0,2023-03-06 14:07:46.582
173.0,-813.379980728624,-3278.866801126810,10768.578740188900,-13802.202201152100,20995.954691881500,0.0,0.0,0.0,0.41200000000000000,-0.486,-0.8240000000000000,192.0,0.0,0.0,0.0,0.0,0.0,0.0,0.0,0.0,0.0,1.67814046658607E+09,0.0,2023-03-06 14:07:46.586
174.0,-811.2565650053700,-3276.1398883032700,10763.37078373080,-13799.676454028700,20997.228741315500,0.0,0.0,0.0,0.41200000000000000,-0.486,-0.8240000000000000,192.0,0.0,0.0,0.0,0.0,0.0,0.0,0.0,0.0,0.0,1.67814046658905E+09,0.0,2023-03-06 14:07:46.589
175.0,-802.7405503678980,-3276.899847614750,10802.888667927800,-13805.242038398000,21016.473593291500,0.0,0.0,0.0,0.41200000000000000,-0.486,-0.8240000000000000,192.0,0.0,0.0,0.0,0.0,0.0,0.0,0.0,0.0,0.0,1.67814046659306E+09,0.0,2023-03-06 14:07:46.593
176.0,-807.7473411258870,-3279.6044086938400,10815.070368656000,-13808.72891053310,21026.665988763100,0.0,0.0,0.0,0.41200000000000000,-0.486,-0.8240000000000000,192.0,0.0,0.0,0.0,0.0,0.0,0.0,0.0,0.0,0.0,1.6781404665971E+09,0.0,2023-03-06 14:07:46.597
177.0,-818.2750127643360,-3278.7550424045400,10773.496123969100,-13807.968951221600,21004.67187221910,0.0,0.0,0.0,0.41200000000000000,-0.486,-0.8240000000000000,192.0,0.0,0.0,0.0,0.0,0.0,0.0,0.0,0.0,0.0,1.67814046660114E+09,0.0,2023-03-06 14:07:46.601
178.0,-818.2303092754260,-3279.6938156716600,10754.519492926500,-13806.806660509900,20994.099497091700,0.0,0.0,0.0,0.41200000000000000,-0.486,-0.8240000000000000,192.0,0.0,0.0,0.0,0.0,0.0,0.0,0.0,0.0,0.0,1.67814046660512E+09,0.0,2023-03-06 14:07:46.605
179.0,-806.2944777362920,-3280.3643680053200,10790.997539877600,-13811.232305912100,21012.629093245200,0.0,0.0,0.0,0.41200000000000000,-0.486,-0.8240000000000000,192.0,0.0,0.0,0.0,0.0,0.0,0.0,0.0,0.0,0.0,1.67814046661014E+09,0.0,2023-03-06 14:07:46.610
180.0,-802.2488119898810,-3280.0290918384900,10809.303618586500,-13810.718215789600,21018.775822970400,0.0,0.0,0.0,0.418,-0.49,-0.8240000000000000,192.0,13.0,16.0,240.0,176.0,230.0,64.0,0.0,0.0,0.0,1.67814046661415E+09,0.0,2023-03-06 14:07:46.614
181.0,-808.3508382261800,-3280.140850560770,10777.362975759900,-13806.694901787600,21006.862343175700,0.0,0.0,0.0,0.418,-0.49,-0.8240000000000000,192.0,0.0,0.0,0.0,0.0,0.0,0.0,0.0,0.0,0.0,1.67814046661718E+09,0.0,2023-03-06 14:07:46.617
182.0,-810.5413091828,-3281.392548250260,10747.925728312200,-13802.224552896600,21000.939130895000,0.0,0.0,0.0,0.418,-0.49,-0.8240000000000000,192.0,0.0,0.0,0.0,0.0,0.0,0.0,0.0,0.0,0.0,1.67814046662122E+09,0.0,2023-03-06 14:07:46.621
183.0,-805.1321870246160,-3281.3701965058100,10781.028661850500,-13802.381015107800,21013.836087445700,0.0,0.0,0.0,0.418,-0.49,-0.8240000000000000,192.0,0.0,0.0,0.0,0.0,0.0,0.0,0.0,0.0,0.0,1.67814046662523E+09,0.0,2023-03-06 14:07:46.625
184.0,-799.0301607883170,-3280.8561063833400,10807.359016818900,-13806.761957021000,21020.631017760200,0.0,0.0,0.0,0.418,-0.49,-0.8240000000000000,192.0,0.0,0.0,0.0,0.0,0.0,0.0,0.0,0.0,0.0,1.67814046662928E+09,0.0,2023-03-06 14:07:46.629
185.0,-805.0651317912500,-3284.387682007280,10784.604940963400,-13810.002959967000,21012.562038011800,0.0,0.0,0.0,0.418,-0.49,-0.8240000000000000,192.0,0.0,0.0,0.0,0.0,0.0,0.0,0.0,0.0,0.0,1.67814046663326E+09,0.0,2023-03-06 14:07:46.633
186.0,-813.4023324730790,-3281.169030805710,10750.093847524400,-13805.86788724280,21003.219008829500,0.0,0.0,0.0,0.418,-0.49,-0.8240000000000000,192.0,0.0,0.0,0.0,0.0,0.0,0.0,0.0,0.0,0.0,1.67814046663729E+09,0.0,2023-03-06 14:07:46.637
187.0,-804.8192626022420,-3279.872629627300,10777.810010649000,-13806.806660509900,21010.840953688700,0.0,0.0,0.0,0.418,-0.49,-0.8240000000000000,192.0,0.0,0.0,0.0,0.0,0.0,0.0,0.0,0.0,0.0,1.67814046664236E+09,0.0,2023-03-06 14:07:46.642
188.0,-795.3197712087360,-3276.586923192370,10811.18116512070,-13809.488869844500,21017.077090391800,0.0,0.0,0.0,0.418,-0.49,-0.8240000000000000,192.0,0.0,0.0,0.0,0.0,0.0,0.0,0.0,0.0,0.0,1.67814046664531E+09,0.0,2023-03-06 14:07:46.645
189.0,-800.415968944546,-3277.033958081480,10800.318217315500,-13798.78238425050,21013.612570001200,0.0,0.0,0.0,0.418,-0.49,-0.8240000000000000,192.0,0.0,0.0,0.0,0.0,0.0,0.0,0.0,0.0,0.0,1.67814046664842E+09,0.0,2023-03-06 14:07:46.648
190.0,-814.2293470179260,-3279.805574393940,10756.978184816600,-13804.482079086600,20994.501828491900,0.0,0.0,0.0,0.41400000000000000,-0.484,-0.8300000000000000,192.0,12.0,240.0,240.0,224.0,230.0,16.0,0.0,0.0,0.0,1.67814046665343E+09,0.0,2023-03-06 14:07:46.653
191.0,-812.1729865280370,-3280.3196645164100,10771.439763479200,-13814.316846646900,21001.520276250900,0.0,0.0,0.0,0.41400000000000000,-0.484,-0.8300000000000000,192.0,0.0,0.0,0.0,0.0,0.0,0.0,0.0,0.0,0.0,1.6781404666574E+09,0.0,2023-03-06 14:07:46.657
192.0,-803.9028410795740,-3277.1233650593000,10806.084967384900,-13811.947561734600,21020.832183460300,0.0,0.0,0.0,0.41400000000000000,-0.484,-0.8300000000000000,192.0,0.0,0.0,0.0,0.0,0.0,0.0,0.0,0.0,0.0,1.67814046666139E+09,0.0,2023-03-06 14:07:46.661
193.0,-806.9650300699510,-3277.190420292670,10803.13453711680,-13807.097233187800,21019.49107879290,0.0,0.0,0.0,0.41400000000000000,-0.484,-0.8300000000000000,192.0,0.0,0.0,0.0,0.0,0.0,0.0,0.0,0.0,0.0,1.67814046666549E+09,0.0,2023-03-06 14:07:46.665
194.0,-819.9066901095740,-3278.7550424045400,10757.22405400560,-13802.291608129900,21004.31424430780,0.0,0.0,0.0,0.41400000000000000,-0.484,-0.8300000000000000,192.0,0.0,0.0,0.0,0.0,0.0,0.0,0.0,0.0,0.0,1.67814046666946E+09,0.0,2023-03-06 14:07:46.669
195.0,-815.0787133072270,-3278.866801126810,10763.102562797400,-13797.865962727800,21007.465840276000,0.0,0.0,0.0,0.41400000000000000,-0.484,-0.8300000000000000,192.0,0.0,0.0,0.0,0.0,0.0,0.0,0.0,0.0,0.0,1.67814046667244E+09,0.0,2023-03-06 14:07:46.672
196.0,-804.8192626022420,-3276.6316266812800,10801.569915005000,-13797.083651671800,21015.19954385750,0.0,0.0,0.0,0.41400000000000000,-0.484,-0.8300000000000000,192.0,0.0,0.0,0.0,0.0,0.0,0.0,0.0,0.0,0.0,1.67814046667648E+09,0.0,2023-03-06 14:07:46.676
197.0,-802.4052742010680,-3274.4858592135700,10807.80605170800,-13800.01173019550,21012.87496243420,0.0,0.0,0.0,0.41400000000000000,-0.484,-0.8300000000000000,192.0,0.0,0.0,0.0,0.0,0.0,0.0,0.0,0.0,0.0,1.67814046668146E+09,0.0,2023-03-06 14:07:46.681
198.0,-813.7823121288200,-3273.904713857740,10767.639966921800,-13804.526782575500,20989.271520289400,0.0,0.0,0.0,0.41400000000000000,-0.484,-0.8300000000000000,192.0,0.0,0.0,0.0,0.0,0.0,0.0,0.0,0.0,0.0,1.67814046668551E+09,0.0,2023-03-06 14:07:46.685
199.0,-815.7716173853420,-3276.4528127256400,10761.426181963200,-13808.036006454900,20989.159761567100,0.0,0.0,0.0,0.41400000000000000,-0.484,-0.8300000000000000,192.0,0.0,0.0,0.0,0.0,0.0,0.0,0.0,0.0,0.0,1.67814046668956E+09,0.0,2023-03-06 14:07:46.689
200.0,-808.2167277594480,-3277.525696459500,10798.552429503500,-13809.220648911100,21001.743793695400,0.0,0.0,0.0,0.41400000000000000,-0.482,-0.8260000000000000,192.0,12.0,240.0,240.0,240.0,230.0,48.0,0.0,0.0,0.0,1.67814046669354E+09,0.0,2023-03-06 14:07:46.693
201.0,-802.6511433900770,-3277.592751692860,10809.594191264400,-13806.806660509900,20998.72630819400,0.0,0.0,0.0,0.41400000000000000,-0.482,-0.8260000000000000,192.0,0.0,0.0,0.0,0.0,0.0,0.0,0.0,0.0,0.0,1.67814046669657E+09,0.0,2023-03-06 14:07:46.696
202.0,-813.2235185174370,-3280.096147071860,10770.724507656600,-13812.327541390400,20975.011107326900,0.0,0.0,0.0,0.41400000000000000,-0.482,-0.8260000000000000,192.0,0.0,0.0,0.0,0.0,0.0,0.0,0.0,0.0,0.0,1.67814046670056E+09,0.0,2023-03-06 14:07:46.700
203.0,-814.8775476071300,-3280.900809872250,10751.613766147300,-13818.742492049000,20960.43776994200,0.0,0.0,0.0,0.41400000000000000,-0.482,-0.8260000000000000,192.0,0.0,0.0,0.0,0.0,0.0,0.0,0.0,0.0,0.0,1.67814046670457E+09,0.0,2023-03-06 14:07:46.704
204.0,-805.2662974913480,-3281.549010461450,10788.695310198700,-13820.016541483000,20978.475627717500,0.0,0.0,0.0,0.41400000000000000,-0.482,-0.8260000000000000,192.0,0.0,0.0,0.0,0.0,0.0,0.0,0.0,0.0,0.0,1.67814046670862E+09,0.0,2023-03-06 14:07:46.708
205.0,-801.9582393119620,-3283.158336062230,10809.057749397500,-13819.569506593900,20982.364831252700,0.0,0.0,0.0,0.41400000000000000,-0.482,-0.8260000000000000,192.0,0.0,0.0,0.0,0.0,0.0,0.0,0.0,0.0,0.0,1.67814046671359E+09,0.0,2023-03-06 14:07:46.713
206.0,-810.0495708047830,-3284.8347168963800,10777.139458315300,-13818.071939715400,20977.939185850500,0.0,0.0,0.0,0.41400000000000000,-0.482,-0.8260000000000000,192.0,0.0,0.0,0.0,0.0,0.0,0.0,0.0,0.0,0.0,1.67814046671765E+09,0.0,2023-03-06 14:07:46.717
207.0,-819.7055244094760,-3286.421690752710,10745.064705021900,-13817.557849592900,20971.21131076950,0.0,0.0,0.0,0.41400000000000000,-0.482,-0.8260000000000000,192.0,0.0,0.0,0.0,0.0,0.0,0.0,0.0,0.0,0.0,1.67814046672166E+09,0.0,2023-03-06 14:07:46.721
208.0,-814.9222510960400,-3287.7627954200300,10779.12876357180,-13813.06514895740,20980.755505651900,0.0,0.0,0.0,0.41400000000000000,-0.482,-0.8260000000000000,192.0,0.0,0.0,0.0,0.0,0.0,0.0,0.0,0.0,0.0,1.67814046672466E+09,0.0,2023-03-06 14:07:46.724
209.0,-805.4227597025350,-3286.131118074790,10806.576705762900,-13809.69003554460,20987.14810456610,0.0,0.0,0.0,0.41400000000000000,-0.482,-0.8260000000000000,192.0,0.0,0.0,0.0,0.0,0.0,0.0,0.0,0.0,0.0,1.67814046672869E+09,0.0,2023-03-06 14:07:46.728
210.0,-809.0884457932050,-3284.074757584900,10782.012138606600,-13810.807622767400,20978.20740678400,0.0,0.0,0.0,0.42,-0.486,-0.8200000000000000,192.0,13.0,32.0,240.0,208.0,230.0,96.0,0.0,0.0,0.0,1.67814046673271E+09,0.0,2023-03-06 14:07:46.732
211.0,-818.990268586906,-3284.03005409599,10742.203681731700,-13812.01461696800,20962.38237170960,0.0,0.0,0.0,0.42,-0.486,-0.8200000000000000,192.0,0.0,0.0,0.0,0.0,0.0,0.0,0.0,0.0,0.0,1.67814046673677E+09,0.0,2023-03-06 14:07:46.736
212.0,-809.8484051046860,-3282.9348186176800,10768.109353555400,-13820.30711416090,20971.56893868080,0.0,0.0,0.0,0.42,-0.486,-0.8200000000000000,192.0,0.0,0.0,0.0,0.0,0.0,0.0,0.0,0.0,0.0,1.67814046674074E+09,0.0,2023-03-06 14:07:46.740
213.0,-802.1370532676050,-3280.2749610275000,10801.23463883810,-13814.294494902400,20988.712726678000,0.0,0.0,0.0,0.42,-0.486,-0.8200000000000000,192.0,0.0,0.0,0.0,0.0,0.0,0.0,0.0,0.0,0.0,1.67814046674575E+09,0.0,2023-03-06 14:07:46.745
214.0,-807.8143963592530,-3279.000911593550,10788.85177240990,-13811.522878590000,20987.19280805500,0.0,0.0,0.0,0.42,-0.486,-0.8200000000000000,192.0,0.0,0.0,0.0,0.0,0.0,0.0,0.0,0.0,0.0,1.6781404667498E+09,0.0,2023-03-06 14:07:46.749
215.0,-820.2419662764030,-3277.324530759400,10746.361106200400,-13809.131241933300,20972.217139270000,0.0,0.0,0.0,0.42,-0.486,-0.8200000000000000,192.0,0.0,0.0,0.0,0.0,0.0,0.0,0.0,0.0,0.0,1.6781404667528E+09,0.0,2023-03-06 14:07:46.752
216.0,-816.509224952367,-3276.4975162145500,10762.811990119500,-13807.83484075490,20981.49311321890,0.0,0.0,0.0,0.42,-0.486,-0.8200000000000000,192.0,0.0,0.0,0.0,0.0,0.0,0.0,0.0,0.0,0.0,1.67814046675679E+09,0.0,2023-03-06 14:07:46.756
217.0,-796.3703031981350,-3270.8648766118100,10801.301694071500,-13804.705596531100,20987.326918521800,0.0,0.0,0.0,0.42,-0.486,-0.8200000000000000,192.0,0.0,0.0,0.0,0.0,0.0,0.0,0.0,0.0,0.0,1.67814046676087E+09,0.0,2023-03-06 14:07:46.760
218.0,-792.0787682627160,-3268.5402951884600,10801.078176626900,-13801.68811102960,20980.084953318200,0.0,0.0,0.0,0.42,-0.486,-0.8200000000000000,192.0,0.0,0.0,0.0,0.0,0.0,0.0,0.0,0.0,0.0,1.67814046676487E+09,0.0,2023-03-06 14:07:46.764
219.0,-803.1428817680930,-3271.1778010341900,10756.754667372100,-13799.765861006500,20967.210348512000,0.0,0.0,0.0,0.42,-0.486,-0.8200000000000000,192.0,0.0,0.0,0.0,0.0,0.0,0.0,0.0,0.0,0.0,1.67814046676887E+09,0.0,2023-03-06 14:07:46.768
220.0,-800.9971143003840,-3273.971769091100,10760.465056951600,-13802.023387196500,20975.90517710510,0.0,0.0,0.0,0.418,-0.488,-0.8240000000000000,192.0,13.0,16.0,240.0,192.0,230.0,64.0,0.0,0.0,0.0,1.67814046677391E+09,0.0,2023-03-06 14:07:46.773
221.0,-789.284800205803,-3270.6413591672600,10799.222981837200,-13809.287704144400,20992.691337191000,0.0,0.0,0.0,0.418,-0.488,-0.8240000000000000,192.0,0.0,0.0,0.0,0.0,0.0,0.0,0.0,0.0,0.0,1.67814046677794E+09,0.0,2023-03-06 14:07:46.777
222.0,-787.4743089049230,-3267.4450597101500,10809.393025564300,-13811.388768123200,20992.75839242440,0.0,0.0,0.0,0.418,-0.488,-0.8240000000000000,192.0,0.0,0.0,0.0,0.0,0.0,0.0,0.0,0.0,0.0,1.67814046678092E+09,0.0,2023-03-06 14:07:46.780
223.0,-803.3440474681910,-3271.446021967650,10769.003423333600,-13808.68420704420,20973.267671259400,0.0,0.0,0.0,0.418,-0.488,-0.8240000000000000,192.0,0.0,0.0,0.0,0.0,0.0,0.0,0.0,0.0,0.0,1.67814046678497E+09,0.0,2023-03-06 14:07:46.784
224.0,-809.8484051046860,-3275.7375569030700,10759.682745895700,-13808.63950355520,20966.405685711600,0.0,0.0,0.0,0.418,-0.488,-0.8240000000000000,192.0,0.0,0.0,0.0,0.0,0.0,0.0,0.0,0.0,0.0,1.67814046678895E+09,0.0,2023-03-06 14:07:46.788
225.0,-798.7619398548530,-3275.625798180800,10797.814821936500,-13807.879544243800,20978.073296317300,0.0,0.0,0.0,0.418,-0.488,-0.8240000000000000,192.0,0.0,0.0,0.0,0.0,0.0,0.0,0.0,0.0,0.0,1.67814046679297E+09,0.0,2023-03-06 14:07:46.792
226.0,-796.7502828538760,-3276.7657371480200,10814.533926789000,-13805.286741886900,20984.175322553600,0.0,0.0,0.0,0.418,-0.488,-0.8240000000000000,192.0,0.0,0.0,0.0,0.0,0.0,0.0,0.0,0.0,0.0,1.67814046679699E+09,0.0,2023-03-06 14:07:46.796
227.0,-812.1059312946720,-3279.7161674161200,10777.318272271000,-13806.49373608750,20971.077200302700,0.0,0.0,0.0,0.418,-0.488,-0.8240000000000000,192.0,0.0,0.0,0.0,0.0,0.0,0.0,0.0,0.0,0.0,1.678140466801E+09,0.0,2023-03-06 14:07:46.801
228.0,-815.8833761076180,-3278.576228448900,10755.07828653790,-13820.731797305600,20959.029610041300,0.0,0.0,0.0,0.418,-0.488,-0.8240000000000000,192.0,0.0,0.0,0.0,0.0,0.0,0.0,0.0,0.0,0.0,1.67814046680606E+09,0.0,2023-03-06 14:07:46.806
229.0,-801.2429834893920,-3275.4469842251500,10792.80803117850,-13824.196317696100,20972.328897992200,0.0,0.0,0.0,0.418,-0.488,-0.8240000000000000,192.0,0.0,0.0,0.0,0.0,0.0,0.0,0.0,0.0,0.0,1.67814046680909E+09,0.0,2023-03-06 14:07:46.809
230.0,-796.3703031981350,-3273.971769091100,10814.980961678100,-13818.11664320430,20980.48728471840,0.0,0.0,0.0,0.41400000000000000,-0.488,-0.8200000000000000,192.0,12.0,240.0,240.0,192.0,230.0,96.0,0.0,0.0,0.0,1.67814046681207E+09,0.0,2023-03-06 14:07:46.812
231.0,-806.7415126253980,-3275.916370858710,10786.482487497600,-13817.759015293000,20962.404723454100,0.0,0.0,0.0,0.41400000000000000,-0.488,-0.8200000000000000,192.0,0.0,0.0,0.0,0.0,0.0,0.0,0.0,0.0,0.0,1.67814046681706E+09,0.0,2023-03-06 14:07:46.817
232.0,-814.8775476071300,-3277.168068548210,10754.31832722640,-13815.456785614100,20947.987848280400,0.0,0.0,0.0,0.41400000000000000,-0.488,-0.8200000000000000,192.0,0.0,0.0,0.0,0.0,0.0,0.0,0.0,0.0,0.0,1.6781404668211E+09,0.0,2023-03-06 14:07:46.821
233.0,-807.6802858925210,-3274.1729347912000,10784.783754919000,-13812.64046581270,20963.835235099200,0.0,0.0,0.0,0.41400000000000000,-0.488,-0.8200000000000000,192.0,0.0,0.0,0.0,0.0,0.0,0.0,0.0,0.0,0.0,1.67814046682514E+09,0.0,2023-03-06 14:07:46.825
234.0,-797.6443526320880,-3274.1282313022900,10811.069406398500,-13817.311980403900,20971.926566592000,0.0,0.0,0.0,0.41400000000000000,-0.488,-0.8200000000000000,192.0,0.0,0.0,0.0,0.0,0.0,0.0,0.0,0.0,0.0,1.67814046682915E+09,0.0,2023-03-06 14:07:46.829
235.0,-797.8455183321860,-3272.4965539570500,10790.170525332800,-13819.748320549500,20965.28809848880,0.0,0.0,0.0,0.41400000000000000,-0.488,-0.8200000000000000,192.0,0.0,0.0,0.0,0.0,0.0,0.0,0.0,0.0,0.0,1.67814046683316E+09,0.0,2023-03-06 14:07:46.833
236.0,-806.5179951808450,-3271.714242901120,10751.613766147300,-13814.383901880300,20952.994639038400,0.0,0.0,0.0,0.41400000000000000,-0.488,-0.8200000000000000,192.0,0.0,0.0,0.0,0.0,0.0,0.0,0.0,0.0,0.0,1.67814046683717E+09,0.0,2023-03-06 14:07:46.837
237.0,-802.3382189677020,-3272.7647748905200,10775.306615270000,-13812.01461696800,20967.456217701000,0.0,0.0,0.0,0.41400000000000000,-0.488,-0.8200000000000000,192.0,0.0,0.0,0.0,0.0,0.0,0.0,0.0,0.0,0.0,1.67814046684018E+09,0.0,2023-03-06 14:07:46.840
238.0,-795.8562130756630,-3272.720071401610,10809.169508119800,-13813.914515246700,20977.469799217000,0.0,0.0,0.0,0.41400000000000000,-0.488,-0.8200000000000000,192.0,0.0,0.0,0.0,0.0,0.0,0.0,0.0,0.0,0.0,1.6781404668453E+09,0.0,2023-03-06 14:07:46.845
239.0,-797.733759609909,-3272.317740001410,10799.446499281700,-13816.887297259200,20965.109284533200,0.0,0.0,0.0,0.41400000000000000,-0.488,-0.8200000000000000,192.0,0.0,0.0,0.0,0.0,0.0,0.0,0.0,0.0,0.0,1.67814046684922E+09,0.0,2023-03-06 14:07:46.849
240.0,-807.3003062367800,-3272.2730365125000,10754.27362373750,-13812.148727434700,20945.372694179100,0.0,0.0,0.0,0.41400000000000000,-0.488,-0.8200000000000000,192.0,0.0,0.0,0.0,0.0,0.0,0.0,0.0,0.0,0.0,1.67814046685327E+09,0.0,2023-03-06 14:07:46.853
241.0,-802.2935154787920,-3271.446021967650,10768.154057044300,-13813.422776868700,20956.548566406800,0.0,0.0,0.0,0.41600000000000000,-0.484,-0.8160000000000000,192.0,13.0,0.0,240.0,224.0,230.0,128.0,0.0,0.0,0.0,1.67814046685726E+09,0.0,2023-03-06 14:07:46.857
242.0,-790.1118147506490,-3267.065080054410,10805.347359817900,-13810.673512300700,20971.792456125300,0.0,0.0,0.0,0.41600000000000000,-0.484,-0.8160000000000000,192.0,0.0,0.0,0.0,0.0,0.0,0.0,0.0,0.0,0.0,1.67814046686129E+09,0.0,2023-03-06 14:07:46.861
243.0,-792.4363961740010,-3266.1710102762,10805.369711562400,-13808.773614022000,20969.95961308000,0.0,0.0,0.0,0.41600000000000000,-0.484,-0.8160000000000000,192.0,0.0,0.0,0.0,0.0,0.0,0.0,0.0,0.0,0.0,1.67814046686534E+09,0.0,2023-03-06 14:07:46.865
244.0,-809.960163826962,-3265.7910306204600,10759.481580195600,-13811.522878590000,20948.1443104916,0.0,0.0,0.0,0.41600000000000000,-0.484,-0.8160000000000000,192.0,0.0,0.0,0.0,0.0,0.0,0.0,0.0,0.0,0.0,1.67814046686842E+09,0.0,2023-03-06 14:07:46.868
245.0,-810.2954399937920,-3266.0816032983800,10760.107429040400,-13810.181773922700,20952.391141938100,0.0,0.0,0.0,0.41600000000000000,-0.484,-0.8160000000000000,192.0,0.0,0.0,0.0,0.0,0.0,0.0,0.0,0.0,0.0,1.67814046687242E+09,0.0,2023-03-06 14:07:46.872
246.0,-789.9330007950070,-3263.6676148972100,10798.999464392600,-13806.806660509900,20971.837159614200,0.0,0.0,0.0,0.41600000000000000,-0.484,-0.8160000000000000,192.0,0.0,0.0,0.0,0.0,0.0,0.0,0.0,0.0,0.0,1.67814046687741E+09,0.0,2023-03-06 14:07:46.877
247.0,-781.7299105799090,-3263.3993939637400,10807.761348219100,-13807.566619821400,20971.01014506940,0.0,0.0,0.0,0.41600000000000000,-0.484,-0.8160000000000000,192.0,0.0,0.0,0.0,0.0,0.0,0.0,0.0,0.0,0.0,1.67814046688141E+09,0.0,2023-03-06 14:07:46.881
248.0,-797.1079107651610,-3268.2720742550000,10767.237635521600,-13808.930076233200,20952.65936287160,0.0,0.0,0.0,0.41600000000000000,-0.484,-0.8160000000000000,192.0,0.0,0.0,0.0,0.0,0.0,0.0,0.0,0.0,0.0,1.67814046688543E+09,0.0,2023-03-06 14:07:46.885
249.0,-801.5782596562220,-3273.2118097796200,10756.620556905300,-13811.813451267900,20948.9936767809,0.0,0.0,0.0,0.41600000000000000,-0.484,-0.8160000000000000,192.0,0.0,0.0,0.0,0.0,0.0,0.0,0.0,0.0,0.0,1.6781404668894E+09,0.0,2023-03-06 14:07:46.889
250.0,-792.4587479184570,-3273.256513268530,10796.56312424700,-13813.623942568800,20964.61754615520,0.0,0.0,0.0,0.41600000000000000,-0.484,-0.8160000000000000,192.0,0.0,0.0,0.0,0.0,0.0,0.0,0.0,0.0,0.0,1.67814046689342E+09,0.0,2023-03-06 14:07:46.893
251.0,-790.3576839396580,-3273.4353272241700,10811.449386054200,-13812.68516930170,20968.506749690400,0.0,0.0,0.0,0.41600000000000000,-0.47600000000000000,-0.8200000000000000,192.0,13.0,0.0,241.0,32.0,230.0,96.0,0.0,0.0,0.0,1.67814046689745E+09,0.0,2023-03-06 14:07:46.897
252.0,-798.1360910101050,-3273.1224028018000,10773.786696647000,-13805.644369798200,20953.598136138700,0.0,0.0,0.0,0.41600000000000000,-0.47600000000000000,-0.8200000000000000,192.0,0.0,0.0,0.0,0.0,0.0,0.0,0.0,0.0,0.0,1.67814046690045E+09,0.0,2023-03-06 14:07:46.900
253.0,-800.9524108114730,-3270.8201731229000,10750.630289391300,-13803.319788374900,20944.43392091200,0.0,0.0,0.0,0.41600000000000000,-0.47600000000000000,-0.8200000000000000,192.0,0.0,0.0,0.0,0.0,0.0,0.0,0.0,0.0,0.0,1.67814046690451E+09,0.0,2023-03-06 14:07:46.904
254.0,-795.1409572530940,-3271.5577806899300,10784.068499096500,-13809.712387289100,20960.080142030700,0.0,0.0,0.0,0.41600000000000000,-0.47600000000000000,-0.8200000000000000,192.0,0.0,0.0,0.0,0.0,0.0,0.0,0.0,0.0,0.0,1.6781404669095E+09,0.0,2023-03-06 14:07:46.909
255.0,-791.3858641846020,-3271.937760345670,10805.079138884400,-13808.237172155000,20970.920738091600,0.0,0.0,0.0,0.41600000000000000,-0.47600000000000000,-0.8200000000000000,192.0,0.0,0.0,0.0,0.0,0.0,0.0,0.0,0.0,0.0,1.67814046691353E+09,0.0,2023-03-06 14:07:46.913
0.0,-800.7735968558310,-3274.6646731692200,10775.999519348100,-13810.628808811800,20960.66128738660,0.0,0.0,0.0,0.41600000000000000,-0.47600000000000000,-0.8200000000000000,192.0,0.0,0.0,0.0,0.0,0.0,0.0,0.0,0.0,0.0,1.67814046691653E+09,0.0,2023-03-06 14:07:46.916
1.0,-808.8202248597410,-3273.323568501900,10742.762475343000,-13813.288666401900,20945.775025579300,0.0,0.0,0.0,0.41600000000000000,-0.47600000000000000,-0.8200000000000000,192.0,0.0,0.0,0.0,0.0,0.0,0.0,0.0,0.0,0.0,1.67814046692056E+09,0.0,2023-03-06 14:07:46.920
2.0,-800.639486389099,-3272.1612777902200,10773.47377222460,-13815.233268169600,20961.53300542030,0.0,0.0,0.0,0.41600000000000000,-0.47600000000000000,-0.8200000000000000,192.0,0.0,0.0,0.0,0.0,0.0,0.0,0.0,0.0,0.0,1.67814046692454E+09,0.0,2023-03-06 14:07:46.924
3.0,-792.5258031518230,-3269.3226062444000,10801.972246405200,-13816.64142807020,20964.461083944000,0.0,0.0,0.0,0.41600000000000000,-0.47600000000000000,-0.8200000000000000,192.0,0.0,0.0,0.0,0.0,0.0,0.0,0.0,0.0,0.0,1.67814046692862E+09,0.0,2023-03-06 14:07:46.928
4.0,-796.1020822646720,-3269.6578824112300,10783.889685140800,-13808.080709943900,20956.01212453990,0.0,0.0,0.0,0.41600000000000000,-0.47600000000000000,-0.8200000000000000,192.0,0.0,0.0,0.0,0.0,0.0,0.0,0.0,0.0,0.0,1.67814046693263E+09,0.0,2023-03-06 14:07:46.932
5.0,-807.2108992589590,-3272.9212371017000,10742.829530576400,-13807.276047143500,20940.81293831030,0.0,0.0,0.0,0.41600000000000000,-0.482,-0.8180000000000000,192.0,13.0,0.0,240.0,240.0,230.0,112.0,0.0,0.0,0.0,1.67814046693762E+09,0.0,2023-03-06 14:07:46.937
6.0,-802.7181986234430,-3277.0563098259300,10765.024812820500,-13807.700730288100,20945.886784301600,0.0,0.0,0.0,0.41600000000000000,-0.482,-0.8180000000000000,192.0,0.0,0.0,0.0,0.0,0.0,0.0,0.0,0.0,0.0,1.67814046694162E+09,0.0,2023-03-06 14:07:46.941
7.0,-793.5986868856770,-3274.999949336050,10798.41831903680,-13806.91841923220,20956.839139084700,0.0,0.0,0.0,0.41600000000000000,-0.482,-0.8180000000000000,192.0,0.0,0.0,0.0,0.0,0.0,0.0,0.0,0.0,0.0,1.67814046694467E+09,0.0,2023-03-06 14:07:46.944
8.0,-798.4490154324790,-3273.614141179820,10788.807068921000,-13813.959218735600,20951.2959064598,0.0,0.0,0.0,0.41600000000000000,-0.482,-0.8180000000000000,192.0,0.0,0.0,0.0,0.0,0.0,0.0,0.0,0.0,0.0,1.67814046694864E+09,0.0,2023-03-06 14:07:46.948
9.0,-812.7541318838750,-3273.2118097796200,10743.433027676700,-13812.30518964590,20937.90721153110,0.0,0.0,0.0,0.41600000000000000,-0.482,-0.8180000000000000,192.0,0.0,0.0,0.0,0.0,0.0,0.0,0.0,0.0,0.0,1.67814046695268E+09,0.0,2023-03-06 14:07:46.952
10.0,-805.6909806359980,-3274.776431891490,10753.491312681600,-13818.273105415500,20935.269705685300,0.0,0.0,0.0,0.41600000000000000,-0.482,-0.8180000000000000,192.0,0.0,0.0,0.0,0.0,0.0,0.0,0.0,0.0,0.0,1.6781404669567E+09,0.0,2023-03-06 14:07:46.956
11.0,-794.3586461971580,-3272.8541818683400,10787.912999142800,-13823.481061873600,20946.222060468400,0.0,0.0,0.0,0.41600000000000000,-0.482,-0.8180000000000000,192.0,0.0,0.0,0.0,0.0,0.0,0.0,0.0,0.0,0.0,1.67814046696073E+09,0.0,2023-03-06 14:07:46.960
12.0,-793.0845967632050,-3269.8813998557800,10789.321159043500,-13802.06809068540,20963.81288335480,0.0,0.0,0.0,0.41600000000000000,-0.482,-0.8180000000000000,192.0,0.0,0.0,0.0,0.0,0.0,0.0,0.0,0.0,0.0,1.67814046696473E+09,0.0,2023-03-06 14:07:46.964
13.0,-807.1661957700490,-3271.6024841788400,10744.662373621700,-13795.764898749000,20948.032551769300,0.0,0.0,0.0,0.41600000000000000,-0.482,-0.8180000000000000,192.0,0.0,0.0,0.0,0.0,0.0,0.0,0.0,0.0,0.0,1.67814046696974E+09,0.0,2023-03-06 14:07:46.969
14.0,-811.2565650053700,-3276.519867959010,10742.31544045390,-13821.536460106000,20921.791603778800,0.0,0.0,0.0,0.41600000000000000,-0.482,-0.8180000000000000,192.0,0.0,0.0,0.0,0.0,0.0,0.0,0.0,0.0,0.0,1.67814046697278E+09,0.0,2023-03-06 14:07:46.972
15.0,-797.3314282097140,-3274.396452235750,10781.520400228500,-13839.551966136900,20916.673054298500,0.0,0.0,0.0,0.422,-0.486,-0.8180000000000000,192.0,13.0,48.0,240.0,208.0,230.0,112.0,0.0,0.0,0.0,1.67814046697679E+09,0.0,2023-03-06 14:07:46.976
16.0,-792.190526984993,-3270.976635334090,10794.618522479400,-13844.089370261400,20916.069557198200,0.0,0.0,0.0,0.422,-0.486,-0.8180000000000000,192.0,0.0,0.0,0.0,0.0,0.0,0.0,0.0,0.0,0.0,1.67814046698084E+09,0.0,2023-03-06 14:07:46.980
17.0,-801.9805910564170,-3269.099088799850,10753.871292337300,-13852.627736643300,20891.974376675400,0.0,0.0,0.0,0.422,-0.486,-0.8180000000000000,192.0,0.0,0.0,0.0,0.0,0.0,0.0,0.0,0.0,0.0,1.6781404669848E+09,0.0,2023-03-06 14:07:46.984
18.0,-805.8474428471860,-3269.769641133500,10739.007382274600,-13874.823018887400,20869.175597331,0.0,0.0,0.0,0.422,-0.486,-0.8180000000000000,192.0,0.0,0.0,0.0,0.0,0.0,0.0,0.0,0.0,0.0,1.67814046698882E+09,0.0,2023-03-06 14:07:46.988
19.0,-793.6433903745880,-3265.299292242440,10777.921769371200,-13868.005736828500,20891.884969697600,0.0,0.0,0.0,0.422,-0.486,-0.8180000000000000,192.0,0.0,0.0,0.0,0.0,0.0,0.0,0.0,0.0,0.0,1.67814046699284E+09,0.0,2023-03-06 14:07:46.992
20.0,-791.0058845288620,-3267.489763199060,10795.780813191000,-13884.680138192200,20889.51568478530,0.0,0.0,0.0,0.422,-0.486,-0.8180000000000000,192.0,0.0,0.0,0.0,0.0,0.0,0.0,0.0,0.0,0.0,1.67814046699687E+09,0.0,2023-03-06 14:07:46.996
21.0,-801.0418177892950,-3269.45671671113,10761.917920341200,-13898.627626732300,20858.066780336700,0.0,0.0,0.0,0.422,-0.486,-0.8180000000000000,192.0,0.0,0.0,0.0,0.0,0.0,0.0,0.0,0.0,0.0,1.67814046700089E+09,0.0,2023-03-06 14:07:47.000
22.0,-804.3722277131350,-3268.0485568104500,10737.576870629400,-13888.74815568310,20854.535204712800,0.0,0.0,0.0,0.422,-0.486,-0.8180000000000000,192.0,0.0,0.0,0.0,0.0,0.0,0.0,0.0,0.0,0.0,1.67814046700392E+09,0.0,2023-03-06 14:07:47.003
23.0,-792.4363961740010,-3266.327472487390,10775.910112370300,-13899.99108314410,20860.83839664920,0.0,0.0,0.0,0.422,-0.486,-0.8180000000000000,192.0,0.0,0.0,0.0,0.0,0.0,0.0,0.0,0.0,0.0,1.67814046700896E+09,0.0,2023-03-06 14:07:47.008
24.0,-783.1827739695040,-3263.0417660524600,10803.693330728200,-13912.910391439200,20860.346658271200,0.0,0.0,0.0,0.422,-0.486,-0.8180000000000000,192.0,0.0,0.0,0.0,0.0,0.0,0.0,0.0,0.0,0.0,1.67814046701296E+09,0.0,2023-03-06 14:07:47.012
25.0,-790.5141461508450,-3263.8911323417600,10778.033528093500,-13905.780184958000,20848.790806387800,0.0,0.0,0.0,0.41400000000000000,-0.486,-0.8200000000000000,192.0,12.0,240.0,240.0,208.0,230.0,96.0,0.0,0.0,0.0,1.67814046701696E+09,0.0,2023-03-06 14:07:47.016
26.0,-800.3265619667250,-3267.4003562212400,10743.008344532100,-13896.392452286800,20840.49830919480,0.0,0.0,0.0,0.41400000000000000,-0.486,-0.8200000000000000,192.0,0.0,0.0,0.0,0.0,0.0,0.0,0.0,0.0,0.0,1.67814046702099E+09,0.0,2023-03-06 14:07:47.020
27.0,-791.4529194179680,-3265.7239753870900,10772.602054190900,-13894.89488540830,20853.50702446780,0.0,0.0,0.0,0.41400000000000000,-0.486,-0.8200000000000000,192.0,0.0,0.0,0.0,0.0,0.0,0.0,0.0,0.0,0.0,1.67814046702501E+09,0.0,2023-03-06 14:07:47.025
28.0,-783.5627536252440,-3261.7230131295900,10803.022778394600,-13893.03969061850,20864.973469373400,0.0,0.0,0.0,0.41400000000000000,-0.486,-0.8200000000000000,192.0,0.0,0.0,0.0,0.0,0.0,0.0,0.0,0.0,0.0,1.67814046702908E+09,0.0,2023-03-06 14:07:47.029
29.0,-790.2235734729260,-3262.594731163350,10786.817763664500,-13893.777298185500,20860.525472226800,0.0,0.0,0.0,0.41400000000000000,-0.486,-0.8200000000000000,192.0,0.0,0.0,0.0,0.0,0.0,0.0,0.0,0.0,0.0,1.67814046703203E+09,0.0,2023-03-06 14:07:47.032
30.0,-800.7959486002860,-3263.242931752560,10746.584623644900,-13889.41870801670,20841.45943420640,0.0,0.0,0.0,0.41400000000000000,-0.486,-0.8200000000000000,192.0,0.0,0.0,0.0,0.0,0.0,0.0,0.0,0.0,0.0,1.67814046703806E+09,0.0,2023-03-06 14:07:47.038
31.0,-791.0058845288620,-3260.940702073660,10768.377574488800,-13885.998891115100,20848.969620343400,0.0,0.0,0.0,0.41400000000000000,-0.486,-0.8200000000000000,192.0,0.0,0.0,0.0,0.0,0.0,0.0,0.0,0.0,0.0,1.67814046704108E+09,0.0,2023-03-06 14:07:47.041
32.0,-778.5559628672560,-3257.45382993863,10805.079138884400,-13884.70248993670,20857.955021614400,0.0,0.0,0.0,0.41400000000000000,-0.486,-0.8200000000000000,192.0,0.0,0.0,0.0,0.0,0.0,0.0,0.0,0.0,0.0,1.67814046704515E+09,0.0,2023-03-06 14:07:47.045
33.0,-780.0758814902170,-3256.6715188826900,10796.697234713700,-13884.166048069700,20857.55269021420,0.0,0.0,0.0,0.41400000000000000,-0.486,-0.8200000000000000,192.0,0.0,0.0,0.0,0.0,0.0,0.0,0.0,0.0,0.0,1.67814046704912E+09,0.0,2023-03-06 14:07:47.049
34.0,-788.122509494127,-3254.436344437160,10749.13272251280,-13887.094126593400,20839.671294650000,0.0,0.0,0.0,0.41400000000000000,-0.486,-0.8200000000000000,192.0,0.0,0.0,0.0,0.0,0.0,0.0,0.0,0.0,0.0,1.67814046705313E+09,0.0,2023-03-06 14:07:47.053
35.0,-783.6745123475210,-3254.3469374593400,10757.961661572700,-13888.099955093900,20845.147472041500,0.0,0.0,0.0,0.41400000000000000,-0.486,-0.8200000000000000,192.0,12.0,240.0,240.0,208.0,230.0,96.0,0.0,0.0,0.0,1.67814046705615E+09,0.0,2023-03-06 14:07:47.056
36.0,-775.2926081767810,-3256.135077015770,10793.545638745500,-13880.187437556700,20864.548786228800,0.0,0.0,0.0,0.41400000000000000,-0.486,-0.8200000000000000,192.0,0.0,0.0,0.0,0.0,0.0,0.0,0.0,0.0,0.0,1.67814046706021E+09,0.0,2023-03-06 14:07:47.060
37.0,-778.444204144979,-3261.0971642848500,10794.059728868000,-13876.946434610700,20867.633326963600,0.0,0.0,0.0,0.41400000000000000,-0.486,-0.8200000000000000,192.0,0.0,0.0,0.0,0.0,0.0,0.0,0.0,0.0,0.0,1.67814046706618E+09,0.0,2023-03-06 14:07:47.066
38.0,-790.5588496397560,-3262.6617863967200,10745.288222466500,-13877.616986944300,20845.080416808200,0.0,0.0,0.0,0.41400000000000000,-0.486,-0.8200000000000000,192.0,0.0,0.0,0.0,0.0,0.0,0.0,0.0,0.0,0.0,1.67814046706923E+09,0.0,2023-03-06 14:07:47.069
39.0,-788.3013234497700,-3261.9912340630600,10740.728466597600,-13879.092202078400,20837.234954504400,0.0,0.0,0.0,0.41400000000000000,-0.486,-0.8200000000000000,192.0,0.0,0.0,0.0,0.0,0.0,0.0,0.0,0.0,0.0,1.6781404670732E+09,0.0,2023-03-06 14:07:47.073
40.0,-778.9806460119060,-3258.414954950210,10780.447516494700,-13870.866760118800,20856.27864078030,0.0,0.0,0.0,0.41400000000000000,-0.486,-0.8200000000000000,192.0,0.0,0.0,0.0,0.0,0.0,0.0,0.0,0.0,0.0,1.67814046707728E+09,0.0,2023-03-06 14:07:47.077
41.0,-777.8183553002310,-3258.5714171614000,10791.332816044400,-13867.782219384000,20862.581832716700,0.0,0.0,0.0,0.41400000000000000,-0.486,-0.8200000000000000,192.0,0.0,0.0,0.0,0.0,0.0,0.0,0.0,0.0,0.0,1.67814046708125E+09,0.0,2023-03-06 14:07:47.081
42.0,-791.3858641846020,-3261.812420107420,10751.770228358500,-13873.213693286600,20847.427349976000,0.0,0.0,0.0,0.41400000000000000,-0.486,-0.8200000000000000,192.0,0.0,0.0,0.0,0.0,0.0,0.0,0.0,0.0,0.0,1.67814046708426E+09,0.0,2023-03-06 14:07:47.084
43.0,-795.2080124864590,-3263.287635241470,10737.68862935170,-13875.001832843000,20837.59258241570,0.0,0.0,0.0,0.41400000000000000,-0.486,-0.8200000000000000,192.0,0.0,0.0,0.0,0.0,0.0,0.0,0.0,0.0,0.0,1.6781404670883E+09,0.0,2023-03-06 14:07:47.088
44.0,-786.4684804044340,-3261.521847429500,10776.84888563740,-13875.001832843000,20852.948230856400,0.0,0.0,0.0,0.41400000000000000,-0.486,-0.8200000000000000,192.0,0.0,0.0,0.0,0.0,0.0,0.0,0.0,0.0,0.0,1.67814046709239E+09,0.0,2023-03-06 14:07:47.092
45.0,-788.8377653166970,-3262.617082907810,10795.512592257600,-13880.612120701300,20865.778132173800,0.0,0.0,0.0,0.418,-0.484,-0.8180000000000000,192.0,13.0,16.0,240.0,224.0,230.0,112.0,0.0,0.0,0.0,1.67814046709643E+09,0.0,2023-03-06 14:07:47.096
46.0,-800.5277276668220,-3265.7910306204600,10763.549597686500,-13880.254492790000,20842.398207473500,0.0,0.0,0.0,0.418,-0.484,-0.8180000000000000,192.0,0.0,0.0,0.0,0.0,0.0,0.0,0.0,0.0,0.0,1.67814046710138E+09,0.0,2023-03-06 14:07:47.101
47.0,-801.0641695337500,-3267.802687621440,10736.906318295800,-13879.293367778500,20826.372006699100,0.0,0.0,0.0,0.418,-0.484,-0.8180000000000000,192.0,0.0,0.0,0.0,0.0,0.0,0.0,0.0,0.0,0.0,1.67814046710539E+09,0.0,2023-03-06 14:07:47.105
48.0,-789.3295036947140,-3265.589864920360,10774.121972813800,-13883.473143991600,20840.677123150500,0.0,0.0,0.0,0.418,-0.484,-0.8180000000000000,192.0,0.0,0.0,0.0,0.0,0.0,0.0,0.0,0.0,0.0,1.67814046710839E+09,0.0,2023-03-06 14:07:47.108
49.0,-781.4616896464460,-3264.271111997500,10804.18506910620,-13890.312777794900,20843.918126096500,0.0,0.0,0.0,0.418,-0.484,-0.8180000000000000,192.0,0.0,0.0,0.0,0.0,0.0,0.0,0.0,0.0,0.0,1.67814046711241E+09,0.0,2023-03-06 14:07:47.112
50.0,-788.6142478721440,-3266.1710102762,10783.062670596000,-13885.328338781400,20833.904544580500,0.0,0.0,0.0,0.418,-0.484,-0.8180000000000000,192.0,0.0,0.0,0.0,0.0,0.0,0.0,0.0,0.0,0.0,1.67814046711642E+09,0.0,2023-03-06 14:07:47.116
51.0,-800.1030445221720,-3269.3002544999400,10745.9364230557,-13881.148562568300,20821.387567685600,0.0,0.0,0.0,0.418,-0.484,-0.8180000000000000,192.0,0.0,0.0,0.0,0.0,0.0,0.0,0.0,0.0,0.0,1.67814046712044E+09,0.0,2023-03-06 14:07:47.120
52.0,-793.0175415298390,-3267.3333009878800,10771.260949523600,-13880.746231168100,20836.474995192900,0.0,0.0,0.0,0.418,-0.484,-0.8180000000000000,192.0,0.0,0.0,0.0,0.0,0.0,0.0,0.0,0.0,0.0,1.67814046712444E+09,0.0,2023-03-06 14:07:47.124
53.0,-785.3955966705800,-3264.6734433976900,10801.391101049300,-13880.545065468000,20848.83550987670,0.0,0.0,0.0,0.418,-0.484,-0.8180000000000000,192.0,0.0,0.0,0.0,0.0,0.0,0.0,0.0,0.0,0.0,1.6781404671285E+09,0.0,2023-03-06 14:07:47.128
54.0,-792.4363961740010,-3267.199190521140,10783.688519440700,-13877.237007288600,20838.55370742720,0.0,0.0,0.0,0.418,-0.484,-0.8180000000000000,192.0,0.0,0.0,0.0,0.0,0.0,0.0,0.0,0.0,0.0,1.67814046713347E+09,0.0,2023-03-06 14:07:47.133
55.0,-799.3430852106910,-3266.841562609860,10737.912146796200,-13875.98530959910,20822.4157479305,0.0,0.0,0.0,0.41400000000000000,-0.488,-0.8200000000000000,192.0,12.0,240.0,240.0,192.0,230.0,96.0,0.0,0.0,0.0,1.67814046713753E+09,0.0,2023-03-06 14:07:47.137
56.0,-790.2235734729260,-3263.488800941560,10754.519492926500,-13880.455658490100,20833.92689632500,0.0,0.0,0.0,0.41400000000000000,-0.488,-0.8200000000000000,192.0,0.0,0.0,0.0,0.0,0.0,0.0,0.0,0.0,0.0,1.67814046714051E+09,0.0,2023-03-06 14:07:47.140
57.0,-779.9641227679400,-3259.398431706240,10787.577722975900,-13884.858952147800,20848.723751154400,0.0,0.0,0.0,0.41400000000000000,-0.488,-0.8200000000000000,192.0,0.0,0.0,0.0,0.0,0.0,0.0,0.0,0.0,0.0,1.67814046714455E+09,0.0,2023-03-06 14:07:47.144
58.0,-778.4889076338900,-3255.5762834043800,10782.950911873700,-13885.1271730813,20851.294201766800,0.0,0.0,0.0,0.41400000000000000,-0.488,-0.8200000000000000,192.0,0.0,0.0,0.0,0.0,0.0,0.0,0.0,0.0,0.0,1.67814046714855E+09,0.0,2023-03-06 14:07:47.148
59.0,-787.6754746050210,-3252.3129287139100,10740.08026600840,-13878.354594511300,20832.585791657700,0.0,0.0,0.0,0.41400000000000000,-0.488,-0.8200000000000000,192.0,0.0,0.0,0.0,0.0,0.0,0.0,0.0,0.0,0.0,1.67814046715262E+09,0.0,2023-03-06 14:07:47.152
60.0,-785.6191141151330,-3251.463562424610,10747.054010278500,-13872.677251419700,20832.384625957600,0.0,0.0,0.0,0.41400000000000000,-0.488,-0.8200000000000000,192.0,0.0,0.0,0.0,0.0,0.0,0.0,0.0,0.0,0.0,1.67814046715661E+09,0.0,2023-03-06 14:07:47.156
61.0,-779.2488669453700,-3251.5976728913400,10784.13555432980,-13866.664632161200,20841.68295165100,0.0,0.0,0.0,0.41400000000000000,-0.488,-0.8200000000000000,192.0,0.0,0.0,0.0,0.0,0.0,0.0,0.0,0.0,0.0,1.67814046716167E+09,0.0,2023-03-06 14:07:47.161
62.0,-780.7911373127860,-3252.491742669550,10788.538847987500,-13868.966861840100,20841.660599906500,0.0,0.0,0.0,0.41400000000000000,-0.488,-0.8200000000000000,192.0,0.0,0.0,0.0,0.0,0.0,0.0,0.0,0.0,0.0,1.67814046716465E+09,0.0,2023-03-06 14:07:47.164
63.0,-791.9670095404400,-3252.514094414010,10746.606975389400,-13869.279786262500,20823.063948519700,0.0,0.0,0.0,0.41400000000000000,-0.488,-0.8200000000000000,192.0,0.0,0.0,0.0,0.0,0.0,0.0,0.0,0.0,0.0,1.67814046716764E+09,0.0,2023-03-06 14:07:47.167
64.0,-791.6093816291550,-3255.129248515280,10739.812045074900,-13870.978518841100,20823.35452119760,0.0,0.0,0.0,0.41400000000000000,-0.488,-0.8200000000000000,192.0,0.0,0.0,0.0,0.0,0.0,0.0,0.0,0.0,0.0,1.67814046717268E+09,0.0,2023-03-06 14:07:47.172
65.0,-779.6511983455660,-3255.0845450263700,10776.915940870800,-13877.885207877800,20840.74417838390,0.0,0.0,0.0,0.41200000000000000,-0.49,-0.8180000000000000,192.0,12.0,224.0,240.0,176.0,230.0,112.0,0.0,0.0,0.0,1.67814046717671E+09,0.0,2023-03-06 14:07:47.176
66.0,-775.024387243317,-3253.6093298923200,10788.203571820700,-13882.266149791000,20843.35933248510,0.0,0.0,0.0,0.41200000000000000,-0.49,-0.8180000000000000,192.0,0.0,0.0,0.0,0.0,0.0,0.0,0.0,0.0,0.0,1.67814046718072E+09,0.0,2023-03-06 14:07:47.180
67.0,-785.7979280707750,-3252.424687436190,10748.596280645900,-13883.003757358000,20821.901657808000,0.0,0.0,0.0,0.41200000000000000,-0.49,-0.8180000000000000,192.0,0.0,0.0,0.0,0.0,0.0,0.0,0.0,0.0,0.0,1.67814046718472E+09,0.0,2023-03-06 14:07:47.184
68.0,-788.8154135722420,-3250.1448095017400,10733.106521738400,-13882.93670212470,20811.86572454760,0.0,0.0,0.0,0.41200000000000000,-0.49,-0.8180000000000000,192.0,0.0,0.0,0.0,0.0,0.0,0.0,0.0,0.0,0.0,1.6781404671888E+09,0.0,2023-03-06 14:07:47.188
69.0,-777.8630587891410,-3246.3450129443400,10770.746859401100,-13881.84146664640,20830.998817801300,0.0,0.0,0.0,0.41200000000000000,-0.49,-0.8180000000000000,192.0,0.0,0.0,0.0,0.0,0.0,0.0,0.0,0.0,0.0,1.67814046719277E+09,0.0,2023-03-06 14:07:47.192
70.0,-773.6162273426330,-3246.1661989887,10789.119993343400,-13879.338071267400,20837.145547526500,0.0,0.0,0.0,0.41200000000000000,-0.49,-0.8180000000000000,192.0,0.0,0.0,0.0,0.0,0.0,0.0,0.0,0.0,0.0,1.67814046719578E+09,0.0,2023-03-06 14:07:47.195
71.0,-784.1438989810820,-3248.133152500770,10756.709963883200,-13882.64612944680,20812.55862862570,0.0,0.0,0.0,0.41200000000000000,-0.49,-0.8180000000000000,192.0,0.0,0.0,0.0,0.0,0.0,0.0,0.0,0.0,0.0,1.67814046720082E+09,0.0,2023-03-06 14:07:47.200
72.0,-792.5928583851890,-3250.4130304352100,10726.222184446100,-13878.823981144900,20793.73845979430,0.0,0.0,0.0,0.41200000000000000,-0.49,-0.8180000000000000,192.0,0.0,0.0,0.0,0.0,0.0,0.0,0.0,0.0,0.0,1.67814046720482E+09,0.0,2023-03-06 14:07:47.204
73.0,-784.1215472366270,-3250.100106012830,10758.296937739500,-13878.019318344500,20808.22239020140,0.0,0.0,0.0,0.41200000000000000,-0.49,-0.8180000000000000,192.0,0.0,0.0,0.0,0.0,0.0,0.0,0.0,0.0,0.0,1.67814046720882E+09,0.0,2023-03-06 14:07:47.208
74.0,-776.7007680774650,-3248.6919461121500,10786.638949708800,-13882.13203932430,20823.466279919900,0.0,0.0,0.0,0.41200000000000000,-0.49,-0.8180000000000000,192.0,0.0,0.0,0.0,0.0,0.0,0.0,0.0,0.0,0.0,1.67814046721289E+09,0.0,2023-03-06 14:07:47.212
75.0,-783.6968640919760,-3251.329451957880,10765.471847709600,-13882.802591657900,20816.26901820530,0.0,0.0,0.0,0.41200000000000000,-0.49,-0.8180000000000000,192.0,0.0,0.0,0.0,0.0,0.0,0.0,0.0,0.0,0.0,1.67814046721687E+09,0.0,2023-03-06 14:07:47.216
76.0,-793.509279907856,-3251.9553008026200,10727.228012946600,-13860.495550691600,20818.392433928500,0.0,0.0,0.0,0.41400000000000000,-0.492,-0.8280000000000000,192.0,12.0,240.0,240.0,160.0,230.0,32.0,0.0,0.0,0.0,1.67814046721991E+09,0.0,2023-03-06 14:07:47.219
77.0,-787.4296054160130,-3252.581149647370,10754.005402804100,-13860.920233836200,20838.26313474930,0.0,0.0,0.0,0.41400000000000000,-0.492,-0.8280000000000000,192.0,0.0,0.0,0.0,0.0,0.0,0.0,0.0,0.0,0.0,1.67814046722391E+09,0.0,2023-03-06 14:07:47.223
78.0,-785.3061896927580,-3255.9562630601200,10785.476658997100,-13894.447850519200,20817.140736239000,0.0,0.0,0.0,0.41400000000000000,-0.492,-0.8280000000000000,192.0,0.0,0.0,0.0,0.0,0.0,0.0,0.0,0.0,0.0,1.67814046722794E+09,0.0,2023-03-06 14:07:47.227
79.0,-792.2352304739040,-3258.258492739020,10771.283301268000,-13910.071719893400,20796.085392962100,0.0,0.0,0.0,0.41400000000000000,-0.492,-0.8280000000000000,192.0,0.0,0.0,0.0,0.0,0.0,0.0,0.0,0.0,0.0,1.67814046723302E+09,0.0,2023-03-06 14:07:47.233
80.0,-800.8406520891970,-3257.2079607496200,10728.569117613900,-13894.93958889720,20791.570340582200,0.0,0.0,0.0,0.41400000000000000,-0.492,-0.8280000000000000,192.0,0.0,0.0,0.0,0.0,0.0,0.0,0.0,0.0,0.0,1.678140467237E+09,0.0,2023-03-06 14:07:47.237
81.0,-795.0068467863620,-3255.688042126660,10743.164806743200,-13880.969748612600,20813.251532703800,0.0,0.0,0.0,0.41400000000000000,-0.492,-0.8280000000000000,192.0,0.0,0.0,0.0,0.0,0.0,0.0,0.0,0.0,0.0,1.67814046724097E+09,0.0,2023-03-06 14:07:47.240
82.0,-791.3858641846020,-3254.771620603990,10778.592321704900,-13890.402184772800,20827.824870088700,0.0,0.0,0.0,0.41400000000000000,-0.492,-0.8280000000000000,192.0,0.0,0.0,0.0,0.0,0.0,0.0,0.0,0.0,0.0,1.67814046724501E+09,0.0,2023-03-06 14:07:47.245
83.0,-794.313942708247,-3256.112725271310,10776.312443770500,-13887.563513226900,20833.479861435900,0.0,0.0,0.0,0.41400000000000000,-0.492,-0.8280000000000000,192.0,0.0,0.0,0.0,0.0,0.0,0.0,0.0,0.0,0.0,1.67814046724803E+09,0.0,2023-03-06 14:07:47.248
84.0,-799.6560096330650,-3258.012623550010,10734.40292291680,-13883.69666143620,20817.923047295000,0.0,0.0,0.0,0.41400000000000000,-0.492,-0.8280000000000000,192.0,0.0,0.0,0.0,0.0,0.0,0.0,0.0,0.0,0.0,1.67814046725203E+09,0.0,2023-03-06 14:07:47.252
85.0,-796.6608758760540,-3261.164219518210,10743.298917210000,-13890.424536517200,20811.73161408090,0.0,0.0,0.0,0.41400000000000000,-0.492,-0.8280000000000000,192.0,0.0,0.0,0.0,0.0,0.0,0.0,0.0,0.0,0.0,1.67814046725608E+09,0.0,2023-03-06 14:07:47.256
86.0,-785.9767420264180,-3257.5655886609100,10782.213304306700,-13885.976539370600,20816.872515305600,0.0,0.0,0.0,0.41000000000000000,-0.49,-0.8280000000000000,192.0,12.0,208.0,240.0,176.0,230.0,32.0,0.0,0.0,0.0,1.67814046726008E+09,0.0,2023-03-06 14:07:47.260
87.0,-783.8533263031630,-3257.4985334275400,10788.494144498600,-13887.384699271300,20819.48766940690,0.0,0.0,0.0,0.41000000000000000,-0.49,-0.8280000000000000,192.0,0.0,0.0,0.0,0.0,0.0,0.0,0.0,0.0,0.0,1.67814046726511E+09,0.0,2023-03-06 14:07:47.265
88.0,-794.6492188750770,-3257.45382993863,10746.562271900400,-13892.436193518200,20806.2107332004,0.0,0.0,0.0,0.41000000000000000,-0.49,-0.8280000000000000,192.0,0.0,0.0,0.0,0.0,0.0,0.0,0.0,0.0,0.0,1.67814046726913E+09,0.0,2023-03-06 14:07:47.269
89.0,-797.3761316986240,-3257.230312494080,10736.772207829000,-13885.75302192610,20813.251532703800,0.0,0.0,0.0,0.41000000000000000,-0.49,-0.8280000000000000,192.0,0.0,0.0,0.0,0.0,0.0,0.0,0.0,0.0,0.0,1.6781404672731E+09,0.0,2023-03-06 14:07:47.273
90.0,-786.7814048268090,-3255.129248515280,10774.61371119190,-13884.836600403400,20829.858878834100,0.0,0.0,0.0,0.41000000000000000,-0.49,-0.8280000000000000,192.0,0.0,0.0,0.0,0.0,0.0,0.0,0.0,0.0,0.0,1.67814046727616E+09,0.0,2023-03-06 14:07:47.276
91.0,-782.2216489579260,-3256.448001438140,10789.499972999100,-13888.725803938600,20828.40601544450,0.0,0.0,0.0,0.41000000000000000,-0.49,-0.8280000000000000,192.0,0.0,0.0,0.0,0.0,0.0,0.0,0.0,0.0,0.0,1.67814046728016E+09,0.0,2023-03-06 14:07:47.280
92.0,-791.9446577959850,-3257.1185537718000,10749.423295190700,-13886.289463793000,20806.4118989005,0.0,0.0,0.0,0.41000000000000000,-0.49,-0.8280000000000000,192.0,0.0,0.0,0.0,0.0,0.0,0.0,0.0,0.0,0.0,1.67814046728419E+09,0.0,2023-03-06 14:07:47.284
93.0,-796.929096809518,-3258.034975294470,10727.876213535800,-13885.171876570200,20796.599483084600,0.0,0.0,0.0,0.41000000000000000,-0.49,-0.8280000000000000,192.0,0.0,0.0,0.0,0.0,0.0,0.0,0.0,0.0,0.0,1.67814046728818E+09,0.0,2023-03-06 14:07:47.288
94.0,-787.5860676272000,-3258.012623550010,10763.102562797400,-13886.267112048500,20812.245704203300,0.0,0.0,0.0,0.41000000000000000,-0.49,-0.8280000000000000,192.0,0.0,0.0,0.0,0.0,0.0,0.0,0.0,0.0,0.0,1.67814046729221E+09,0.0,2023-03-06 14:07:47.292
95.0,-784.7473960813760,-3256.492704927050,10783.643815951800,-13884.434269003200,20820.895829307500,0.0,0.0,0.0,0.41000000000000000,-0.49,-0.8280000000000000,192.0,0.0,0.0,0.0,0.0,0.0,0.0,0.0,0.0,0.0,1.67814046729722E+09,0.0,2023-03-06 14:07:47.297
96.0,-795.0962537641830,-3257.587940405360,10753.84894059290,-13887.876437649300,20806.277788433800,0.0,0.0,0.0,0.418,-0.486,-0.8240000000000000,192.0,13.0,16.0,240.0,208.0,230.0,64.0,0.0,0.0,0.0,1.67814046730126E+09,0.0,2023-03-06 14:07:47.301
97.0,-801.6676666340430,-3259.97957706208,10723.31645766690,-13890.55864698390,20791.12330569310,0.0,0.0,0.0,0.418,-0.486,-0.8240000000000000,192.0,0.0,0.0,0.0,0.0,0.0,0.0,0.0,0.0,0.0,1.67814046730428E+09,0.0,2023-03-06 14:07:47.304
98.0,-792.704617107465,-3259.487838684060,10757.022888305500,-13886.490629493100,20804.400241899500,0.0,0.0,0.0,0.418,-0.486,-0.8240000000000000,192.0,0.0,0.0,0.0,0.0,0.0,0.0,0.0,0.0,0.0,1.67814046730833E+09,0.0,2023-03-06 14:07:47.308
99.0,-787.0943292491830,-3259.353728217330,10782.995615362600,-13885.50715273700,20807.373023912100,0.0,0.0,0.0,0.418,-0.486,-0.8240000000000000,192.0,0.0,0.0,0.0,0.0,0.0,0.0,0.0,0.0,0.0,1.67814046731242E+09,0.0,2023-03-06 14:07:47.312
100.0,-794.313942708247,-3263.488800941560,10759.347469728900,-13886.580036470900,20793.805515027700,0.0,0.0,0.0,0.418,-0.486,-0.8240000000000000,192.0,0.0,0.0,0.0,0.0,0.0,0.0,0.0,0.0,0.0,1.67814046731637E+09,0.0,2023-03-06 14:07:47.316
101.0,-804.8863178356070,-3267.847391110350,10719.49430936510,-13881.595597457400,20785.53536957920,0.0,0.0,0.0,0.418,-0.486,-0.8240000000000000,192.0,0.0,0.0,0.0,0.0,0.0,0.0,0.0,0.0,0.0,1.67814046732043E+09,0.0,2023-03-06 14:07:47.320
102.0,-796.929096809518,-3266.841562609860,10745.109408510900,-13876.141771810300,20799.058174974700,0.0,0.0,0.0,0.418,-0.486,-0.8240000000000000,192.0,0.0,0.0,0.0,0.0,0.0,0.0,0.0,0.0,0.0,1.67814046732541E+09,0.0,2023-03-06 14:07:47.325
103.0,-785.1497274815710,-3262.2147515076100,10776.982996104100,-13878.064021833400,20808.78118381280,0.0,0.0,0.0,0.418,-0.486,-0.8240000000000000,192.0,0.0,0.0,0.0,0.0,0.0,0.0,0.0,0.0,0.0,1.6781404673294E+09,0.0,2023-03-06 14:07:47.329
104.0,-787.1613844825490,-3263.8911323417600,10764.667184909200,-13879.628643945300,20806.635416345100,0.0,0.0,0.0,0.418,-0.486,-0.8240000000000000,192.0,0.0,0.0,0.0,0.0,0.0,0.0,0.0,0.0,0.0,1.6781404673324E+09,0.0,2023-03-06 14:07:47.332
105.0,-797.3761316986240,-3264.4052224642300,10722.087111721900,-13881.41678350170,20788.597558569600,0.0,0.0,0.0,0.418,-0.486,-0.8240000000000000,192.0,0.0,0.0,0.0,0.0,0.0,0.0,0.0,0.0,0.0,1.67814046733641E+09,0.0,2023-03-06 14:07:47.336
106.0,-796.9514485539730,-3266.103955042830,10736.571042128900,-13883.383737013800,20792.9561487384,0.0,0.0,0.0,0.418,-0.484,-0.8260000000000000,192.0,13.0,16.0,240.0,224.0,230.0,48.0,0.0,0.0,0.0,1.67814046734047E+09,0.0,2023-03-06 14:07:47.340
107.0,-789.2400967168920,-3264.516981186510,10772.825571635400,-13885.41774575920,20803.97555875490,0.0,0.0,0.0,0.418,-0.484,-0.8260000000000000,192.0,0.0,0.0,0.0,0.0,0.0,0.0,0.0,0.0,0.0,1.6781404673445E+09,0.0,2023-03-06 14:07:47.344
108.0,-788.3236751942250,-3263.555856174930,10772.55735070200,-13884.993062614600,20799.058174974700,0.0,0.0,0.0,0.418,-0.484,-0.8260000000000000,192.0,0.0,0.0,0.0,0.0,0.0,0.0,0.0,0.0,0.0,1.67814046734848E+09,0.0,2023-03-06 14:07:47.348
109.0,-798.5607741547550,-3262.393565463250,10729.351428669900,-13882.690832935700,20786.16121842400,0.0,0.0,0.0,0.418,-0.484,-0.8260000000000000,192.0,0.0,0.0,0.0,0.0,0.0,0.0,0.0,0.0,0.0,1.67814046735249E+09,0.0,2023-03-06 14:07:47.352
110.0,-797.3090764652580,-3263.555856174930,10732.771245571500,-13878.667518933700,20795.124267950600,0.0,0.0,0.0,0.418,-0.484,-0.8260000000000000,192.0,0.0,0.0,0.0,0.0,0.0,0.0,0.0,0.0,0.0,1.67814046735649E+09,0.0,2023-03-06 14:07:47.356
111.0,-788.9271722945180,-3262.281806740980,10771.193894290200,-13879.382774756300,20808.73648032390,0.0,0.0,0.0,0.418,-0.484,-0.8260000000000000,192.0,0.0,0.0,0.0,0.0,0.0,0.0,0.0,0.0,0.0,1.67814046735952E+09,0.0,2023-03-06 14:07:47.359
112.0,-788.2566199608590,-3263.242931752560,10778.70408042720,-13877.46052473310,20805.562532611200,0.0,0.0,0.0,0.418,-0.484,-0.8260000000000000,192.0,0.0,0.0,0.0,0.0,0.0,0.0,0.0,0.0,0.0,1.67814046736357E+09,0.0,2023-03-06 14:07:47.363
113.0,-798.1807944990150,-3264.4722776976000,10735.565213628400,-13876.141771810300,20788.64226205850,0.0,0.0,0.0,0.418,-0.484,-0.8260000000000000,192.0,0.0,0.0,0.0,0.0,0.0,0.0,0.0,0.0,0.0,1.67814046736856E+09,0.0,2023-03-06 14:07:47.368
114.0,-798.2478497323810,-3264.852257353340,10725.059893734400,-13881.148562568300,20783.993099211800,0.0,0.0,0.0,0.418,-0.484,-0.8260000000000000,192.0,0.0,0.0,0.0,0.0,0.0,0.0,0.0,0.0,0.0,1.6781404673726E+09,0.0,2023-03-06 14:07:47.372
115.0,-786.5802391267110,-3263.488800941560,10763.616652919800,-13884.926007381200,20796.599483084600,0.0,0.0,0.0,0.418,-0.484,-0.8260000000000000,192.0,0.0,0.0,0.0,0.0,0.0,0.0,0.0,0.0,0.0,1.67814046737675E+09,0.0,2023-03-06 14:07:47.376
116.0,-779.9864745123950,-3261.1865712626700,10780.313406028000,-13885.708318437100,20797.895884263000,0.0,0.0,0.0,0.41600000000000000,-0.48,-0.8260000000000000,192.0,13.0,0.0,241.0,0.0,230.0,48.0,0.0,0.0,0.0,1.67814046738062E+09,0.0,2023-03-06 14:07:47.380
117.0,-788.0778060052160,-3263.4440974526500,10743.924766054700,-13889.351652783400,20774.359497351600,0.0,0.0,0.0,0.41600000000000000,-0.48,-0.8260000000000000,192.0,0.0,0.0,0.0,0.0,0.0,0.0,0.0,0.0,0.0,1.67814046738365E+09,0.0,2023-03-06 14:07:47.383
118.0,-793.285762463303,-3266.0592515539200,10720.92482101020,-13886.960016126600,20761.842520456600,0.0,0.0,0.0,0.41600000000000000,-0.48,-0.8260000000000000,192.0,0.0,0.0,0.0,0.0,0.0,0.0,0.0,0.0,0.0,1.6781404673877E+09,0.0,2023-03-06 14:07:47.387
119.0,-786.9378670379960,-3264.3828707197800,10756.84407434990,-13889.798687672500,20777.48874157530,0.0,0.0,0.0,0.41600000000000000,-0.48,-0.8260000000000000,192.0,0.0,0.0,0.0,0.0,0.0,0.0,0.0,0.0,0.0,1.67814046739167E+09,0.0,2023-03-06 14:07:47.391
120.0,-780.7240820794200,-3260.0913357843600,10781.36393801740,-13888.256417305000,20791.279767904300,0.0,0.0,0.0,0.41600000000000000,-0.48,-0.8260000000000000,192.0,0.0,0.0,0.0,0.0,0.0,0.0,0.0,0.0,0.0,1.6781404673967E+09,0.0,2023-03-06 14:07:47.396
121.0,-787.831936816208,-3260.4713154401000,10752.8878155813,-13886.93766438220,20777.01935494180,0.0,0.0,0.0,0.41600000000000000,-0.48,-0.8260000000000000,192.0,0.0,0.0,0.0,0.0,0.0,0.0,0.0,0.0,0.0,1.67814046740073E+09,0.0,2023-03-06 14:07:47.400
122.0,-793.1963554854820,-3262.974710819090,10721.729483810600,-13889.84339116140,20758.15448262150,0.0,0.0,0.0,0.41600000000000000,-0.48,-0.8260000000000000,192.0,0.0,0.0,0.0,0.0,0.0,0.0,0.0,0.0,0.0,1.67814046740481E+09,0.0,2023-03-06 14:07:47.404
123.0,-781.3722826686240,-3264.6063881643300,10752.329021969900,-13893.84435341890,20773.68894501790,0.0,0.0,0.0,0.41600000000000000,-0.48,-0.8260000000000000,192.0,0.0,0.0,0.0,0.0,0.0,0.0,0.0,0.0,0.0,1.67814046740877E+09,0.0,2023-03-06 14:07:47.408
124.0,-771.8057360417530,-3263.3993939637400,10782.123897328800,-13890.916274895200,20785.96005272390,0.0,0.0,0.0,0.41600000000000000,-0.48,-0.8260000000000000,192.0,0.0,0.0,0.0,0.0,0.0,0.0,0.0,0.0,0.0,1.67814046741183E+09,0.0,2023-03-06 14:07:47.411
125.0,-780.0088262568510,-3263.220580008100,10763.348431986400,-13895.140754597300,20772.01256418380,0.0,0.0,0.0,0.41600000000000000,-0.48,-0.8260000000000000,192.0,0.0,0.0,0.0,0.0,0.0,0.0,0.0,0.0,0.0,1.67814046741578E+09,0.0,2023-03-06 14:07:47.415
126.0,-789.6647798615430,-3262.8629520968100,10723.987010000600,-13892.391490029300,20755.494625031300,0.0,0.0,0.0,0.418,-0.484,-0.8220000000000000,192.0,13.0,16.0,240.0,224.0,230.0,80.0,0.0,0.0,0.0,1.67814046741981E+09,0.0,2023-03-06 14:07:47.419
127.0,-786.0214455153280,-3261.7677166185000,10746.94225155620,-13894.872533663800,20762.624831512600,0.0,0.0,0.0,0.418,-0.484,-0.8220000000000000,192.0,0.0,0.0,0.0,0.0,0.0,0.0,0.0,0.0,0.0,1.67814046742378E+09,0.0,2023-03-06 14:07:47.423
128.0,-785.4626519039460,-3266.6851003986700,10780.156943816800,-13898.515868010000,20770.738514749800,0.0,0.0,0.0,0.418,-0.484,-0.8220000000000000,192.0,0.0,0.0,0.0,0.0,0.0,0.0,0.0,0.0,0.0,1.67814046742884E+09,0.0,2023-03-06 14:07:47.428
129.0,-789.8435938171860,-3267.3109492434200,10771.260949523600,-13892.458545262600,20770.380886838500,0.0,0.0,0.0,0.418,-0.484,-0.8220000000000000,192.0,0.0,0.0,0.0,0.0,0.0,0.0,0.0,0.0,0.0,1.67814046743283E+09,0.0,2023-03-06 14:07:47.432
130.0,-795.0291985308170,-3267.9144463437100,10726.333943168400,-13889.1281353388,20751.471311029400,0.0,0.0,0.0,0.418,-0.484,-0.8220000000000000,192.0,0.0,0.0,0.0,0.0,0.0,0.0,0.0,0.0,0.0,1.67814046743688E+09,0.0,2023-03-06 14:07:47.436
131.0,-791.1623467400490,-3268.6744056551900,10736.816911317900,-13893.240856318600,20754.28763083070,0.0,0.0,0.0,0.418,-0.484,-0.8220000000000000,192.0,0.0,0.0,0.0,0.0,0.0,0.0,0.0,0.0,0.0,1.6781404674399E+09,0.0,2023-03-06 14:07:47.439
132.0,-783.3615879251470,-3266.752155632040,10772.445591979700,-13892.167972584700,20764.860005958100,0.0,0.0,0.0,0.418,-0.484,-0.8220000000000000,192.0,0.0,0.0,0.0,0.0,0.0,0.0,0.0,0.0,0.0,1.67814046744388E+09,0.0,2023-03-06 14:07:47.443
133.0,-788.9271722945180,-3269.5684754334100,10770.165714045300,-13899.074661621400,20760.188491366900,0.0,0.0,0.0,0.418,-0.484,-0.8220000000000000,192.0,0.0,0.0,0.0,0.0,0.0,0.0,0.0,0.0,0.0,1.67814046744791E+09,0.0,2023-03-06 14:07:47.447
134.0,-800.1700997555380,-3271.6695394122100,10723.31645766690,-13896.817135431400,20746.598630738100,0.0,0.0,0.0,0.418,-0.484,-0.8220000000000000,192.0,0.0,0.0,0.0,0.0,0.0,0.0,0.0,0.0,0.0,1.67814046745194E+09,0.0,2023-03-06 14:07:47.451
135.0,-796.6161723871440,-3271.6248359232900,10724.501100123100,-13897.957074398600,20743.759959192300,0.0,0.0,0.0,0.418,-0.484,-0.8220000000000000,192.0,0.0,0.0,0.0,0.0,0.0,0.0,0.0,0.0,0.0,1.67814046745695E+09,0.0,2023-03-06 14:07:47.456
136.0,-785.3061896927580,-3270.1496207892400,10762.230844763600,-13900.03578663300,20748.856156928100,0.0,0.0,0.0,0.418,-0.488,-0.8260000000000000,192.0,13.0,16.0,240.0,192.0,230.0,48.0,0.0,0.0,0.0,1.67814046746097E+09,0.0,2023-03-06 14:07:47.460
137.0,-781.8863727910960,-3269.3226062444000,10769.137533800300,-13894.961940641600,20752.05245638520,0.0,0.0,0.0,0.418,-0.488,-0.8260000000000000,192.0,0.0,0.0,0.0,0.0,0.0,0.0,0.0,0.0,0.0,1.67814046746497E+09,0.0,2023-03-06 14:07:47.464
138.0,-790.5588496397560,-3268.2944259994500,10726.64686759080,-13897.442984276200,20736.339180033100,0.0,0.0,0.0,0.418,-0.488,-0.8260000000000000,192.0,0.0,0.0,0.0,0.0,0.0,0.0,0.0,0.0,0.0,1.67814046746798E+09,0.0,2023-03-06 14:07:47.467
139.0,-792.0340647738060,-3267.3333009878800,10716.007437230000,-13897.51003950950,20730.997113108300,0.0,0.0,0.0,0.418,-0.488,-0.8260000000000000,192.0,0.0,0.0,0.0,0.0,0.0,0.0,0.0,0.0,0.0,1.67814046747199E+09,0.0,2023-03-06 14:07:47.471
140.0,-778.1983349559710,-3261.745364874050,10757.916958083700,-13896.168934842200,20748.00679063880,0.0,0.0,0.0,0.418,-0.488,-0.8260000000000000,192.0,0.0,0.0,0.0,0.0,0.0,0.0,0.0,0.0,0.0,1.67814046747601E+09,0.0,2023-03-06 14:07:47.476
141.0,-769.7493755518650,-3259.1078590283200,10775.820705392400,-13896.41480403120,20745.10106385960,0.0,0.0,0.0,0.418,-0.488,-0.8260000000000000,192.0,0.0,0.0,0.0,0.0,0.0,0.0,0.0,0.0,0.0,1.67814046748007E+09,0.0,2023-03-06 14:07:47.480
142.0,-779.1818117120040,-3259.689004384160,10739.342658441400,-13899.834620932900,20723.822203138100,0.0,0.0,0.0,0.418,-0.488,-0.8260000000000000,192.0,0.0,0.0,0.0,0.0,0.0,0.0,0.0,0.0,0.0,1.67814046748609E+09,0.0,2023-03-06 14:07:47.486
143.0,-783.2945326917810,-3260.068984039900,10715.381588385300,-13898.784088943500,20716.602589679100,0.0,0.0,0.0,0.418,-0.488,-0.8260000000000000,192.0,0.0,0.0,0.0,0.0,0.0,0.0,0.0,0.0,0.0,1.67814046748908E+09,0.0,2023-03-06 14:07:47.489
144.0,-774.7561663098530,-3260.6054259068300,10751.814931847400,-13903.32149306790,20728.2925520292,0.0,0.0,0.0,0.418,-0.488,-0.8260000000000000,192.0,0.0,0.0,0.0,0.0,0.0,0.0,0.0,0.0,0.0,1.67814046749311E+09,0.0,2023-03-06 14:07:47.493
145.0,-766.5977795836660,-3259.130210772780,10774.636062936300,-13906.070757635900,20734.506336987800,0.0,0.0,0.0,0.418,-0.488,-0.8260000000000000,192.0,0.0,0.0,0.0,0.0,0.0,0.0,0.0,0.0,0.0,1.67814046749614E+09,0.0,2023-03-06 14:07:47.496
146.0,-777.7513000668650,-3259.8007631064400,10746.472864922600,-13902.293312823000,20714.43447046690,0.0,0.0,0.0,0.424,-0.486,-0.8280000000000000,192.0,13.0,64.0,240.0,208.0,230.0,32.0,0.0,0.0,0.0,1.67814046750012E+09,0.0,2023-03-06 14:07:47.500
147.0,-789.1506897390710,-3261.9241788296900,10711.894716250300,-13906.98717915860,20693.937920801400,0.0,0.0,0.0,0.424,-0.486,-0.8280000000000000,192.0,0.0,0.0,0.0,0.0,0.0,0.0,0.0,0.0,0.0,1.67814046750416E+09,0.0,2023-03-06 14:07:47.504
148.0,-777.3266169222140,-3260.1807427621800,10744.394152688300,-13906.584847758400,20707.505429685800,0.0,0.0,0.0,0.424,-0.486,-0.8280000000000000,192.0,0.0,0.0,0.0,0.0,0.0,0.0,0.0,0.0,0.0,1.67814046750817E+09,0.0,2023-03-06 14:07:47.508
149.0,-768.6317883290990,-3258.012623550010,10774.569007702900,-13904.282618079500,20723.375168249000,0.0,0.0,0.0,0.424,-0.486,-0.8280000000000000,192.0,0.0,0.0,0.0,0.0,0.0,0.0,0.0,0.0,0.0,1.67814046751219E+09,0.0,2023-03-06 14:07:47.512
150.0,-776.7231198219210,-3259.1525625172300,10753.915995826200,-13906.204868102700,20719.91064785850,0.0,0.0,0.0,0.424,-0.486,-0.8280000000000000,192.0,0.0,0.0,0.0,0.0,0.0,0.0,0.0,0.0,0.0,1.6781404675162E+09,0.0,2023-03-06 14:07:47.516
151.0,-790.8494223176750,-3261.879475340780,10712.095881950400,-13904.193211101700,20700.2858162267,0.0,0.0,0.0,0.424,-0.486,-0.8280000000000000,192.0,0.0,0.0,0.0,0.0,0.0,0.0,0.0,0.0,0.0,1.67814046752025E+09,0.0,2023-03-06 14:07:47.520
152.0,-789.7318350949090,-3266.0592515539200,10735.498158395100,-13904.282618079500,20708.734775630800,0.0,0.0,0.0,0.424,-0.486,-0.8280000000000000,192.0,0.0,0.0,0.0,0.0,0.0,0.0,0.0,0.0,0.0,1.67814046752425E+09,0.0,2023-03-06 14:07:47.524
153.0,-782.512221635845,-3268.070908554900,10770.858618123400,-13905.221391346600,20723.71044441590,0.0,0.0,0.0,0.424,-0.486,-0.8280000000000000,192.0,0.0,0.0,0.0,0.0,0.0,0.0,0.0,0.0,0.0,1.67814046752725E+09,0.0,2023-03-06 14:07:47.527
154.0,-789.5530211392670,-3271.714242901120,10762.432010463700,-13907.858897192300,20713.942732088900,0.0,0.0,0.0,0.424,-0.486,-0.8280000000000000,192.0,0.0,0.0,0.0,0.0,0.0,0.0,0.0,0.0,0.0,1.67814046753235E+09,0.0,2023-03-06 14:07:47.532
155.0,-803.992248057395,-3274.5976179358500,10717.616762830800,-13912.284542594500,20684.371374174500,0.0,0.0,0.0,0.424,-0.486,-0.8280000000000000,192.0,0.0,0.0,0.0,0.0,0.0,0.0,0.0,0.0,0.0,1.67814046753637E+09,0.0,2023-03-06 14:07:47.536
156.0,-799.3207334662360,-3274.3741004913000,10730.781940315000,-13911.971618172100,20689.288757954700,0.0,0.0,0.0,0.424,-0.486,-0.8280000000000000,192.0,0.0,0.0,0.0,0.0,0.0,0.0,0.0,0.0,0.0,1.67814046754036E+09,0.0,2023-03-06 14:07:47.540
157.0,-788.1672129830380,-3271.8483533678500,10768.42227797770,-13909.647036748800,20703.705633128400,0.0,0.0,0.0,0.42,-0.484,-0.8260000000000000,192.0,13.0,32.0,240.0,224.0,230.0,48.0,0.0,0.0,0.0,1.67814046754442E+09,0.0,2023-03-06 14:07:47.544
158.0,-787.7872333272970,-3270.082565555880,10768.914016355800,-13911.70339723870,20701.582217405100,0.0,0.0,0.0,0.42,-0.484,-0.8260000000000000,192.0,0.0,0.0,0.0,0.0,0.0,0.0,0.0,0.0,0.0,1.67814046754836E+09,0.0,2023-03-06 14:07:47.548
159.0,-797.9572770544620,-3269.5461236889500,10724.434044889700,-13911.770452472000,20686.51714164220,0.0,0.0,0.0,0.42,-0.484,-0.8260000000000000,192.0,0.0,0.0,0.0,0.0,0.0,0.0,0.0,0.0,0.0,1.67814046755238E+09,0.0,2023-03-06 14:07:47.552
160.0,-796.3703031981350,-3270.55195218944,10724.344637911900,-13913.156260628300,20685.71247884180,0.0,0.0,0.0,0.42,-0.484,-0.8260000000000000,192.0,0.0,0.0,0.0,0.0,0.0,0.0,0.0,0.0,0.0,1.67814046755539E+09,0.0,2023-03-06 14:07:47.555
161.0,-782.1098902356500,-3265.7910306204600,10764.84599886490,-13917.425443819200,20697.268330725200,0.0,0.0,0.0,0.42,-0.484,-0.8260000000000000,192.0,0.0,0.0,0.0,0.0,0.0,0.0,0.0,0.0,0.0,1.67814046756042E+09,0.0,2023-03-06 14:07:47.560
162.0,-779.673550090021,-3262.3712137188000,10775.865408881400,-13918.453624064200,20696.19544699140,0.0,0.0,0.0,0.42,-0.484,-0.8260000000000000,192.0,0.0,0.0,0.0,0.0,0.0,0.0,0.0,0.0,0.0,1.67814046756442E+09,0.0,2023-03-06 14:07:47.564
163.0,-791.6317333736100,-3265.3439957313500,10732.659486849200,-13925.293257867500,20666.668792565900,0.0,0.0,0.0,0.42,-0.484,-0.8260000000000000,192.0,0.0,0.0,0.0,0.0,0.0,0.0,0.0,0.0,0.0,1.67814046756843E+09,0.0,2023-03-06 14:07:47.568
164.0,-796.1020822646720,-3269.233199266580,10717.572059341900,-13927.99781894660,20653.771836015200,0.0,0.0,0.0,0.42,-0.484,-0.8260000000000000,192.0,0.0,0.0,0.0,0.0,0.0,0.0,0.0,0.0,0.0,1.67814046757248E+09,0.0,2023-03-06 14:07:47.572
165.0,-785.5967623706770,-3268.6967573996500,10756.352335971900,-13926.768473001500,20673.530778113700,0.0,0.0,0.0,0.42,-0.484,-0.8260000000000000,192.0,0.0,0.0,0.0,0.0,0.0,0.0,0.0,0.0,0.0,1.67814046757549E+09,0.0,2023-03-06 14:07:47.575
166.0,-780.9923030128840,-3268.160315532720,10773.56317920250,-13929.18246140270,20681.040964250700,0.0,0.0,0.0,0.42,-0.484,-0.8260000000000000,192.0,0.0,0.0,0.0,0.0,0.0,0.0,0.0,0.0,0.0,1.67814046757951E+09,0.0,2023-03-06 14:07:47.579
167.0,-789.1506897390710,-3266.9980248210500,10738.806216574500,-13931.529394570500,20664.99241173180,0.0,0.0,0.0,0.41400000000000000,-0.484,-0.836,192.0,12.0,240.0,240.0,224.0,229.0,224.0,0.0,0.0,0.0,1.67814046758355E+09,0.0,2023-03-06 14:07:47.583
168.0,-794.313942708247,-3263.712318386120,10713.88402150680,-13923.99685668910,20658.443350606400,0.0,0.0,0.0,0.41400000000000000,-0.484,-0.836,192.0,0.0,0.0,0.0,0.0,0.0,0.0,0.0,0.0,0.0,1.67814046758758E+09,0.0,2023-03-06 14:07:47.587
169.0,-783.1604222250490,-3259.97957706208,10749.825626590900,-13926.120272412300,20671.407362390400,0.0,0.0,0.0,0.41400000000000000,-0.484,-0.836,192.0,0.0,0.0,0.0,0.0,0.0,0.0,0.0,0.0,0.0,1.67814046759255E+09,0.0,2023-03-06 14:07:47.592
170.0,-778.9582942674510,-3261.7900683629600,10774.390193747300,-13928.623667791300,20678.13523747150,0.0,0.0,0.0,0.41400000000000000,-0.484,-0.836,192.0,0.0,0.0,0.0,0.0,0.0,0.0,0.0,0.0,0.0,1.67814046759662E+09,0.0,2023-03-06 14:07:47.596
171.0,-785.932038537507,-3264.204056764130,10749.60210914640,-13925.382664845300,20667.38404838850,0.0,0.0,0.0,0.41400000000000000,-0.484,-0.836,192.0,0.0,0.0,0.0,0.0,0.0,0.0,0.0,0.0,0.0,1.67814046760062E+09,0.0,2023-03-06 14:07:47.600
172.0,-791.8552508181630,-3265.3663474758100,10716.49917560810,-13929.18246140270,20650.441426091400,0.0,0.0,0.0,0.41400000000000000,-0.484,-0.836,192.0,0.0,0.0,0.0,0.0,0.0,0.0,0.0,0.0,0.0,1.67814046760361E+09,0.0,2023-03-06 14:07:47.603
173.0,-786.6919978489870,-3265.6792718981800,10745.802312589000,-13925.047388678500,20668.702801311400,0.0,0.0,0.0,0.41400000000000000,-0.484,-0.836,192.0,0.0,0.0,0.0,0.0,0.0,0.0,0.0,0.0,0.0,1.67814046760762E+09,0.0,2023-03-06 14:07:47.607
174.0,-779.4053291565570,-3264.2487602530400,10776.245388537100,-13921.381702587800,20688.908778298900,0.0,0.0,0.0,0.41400000000000000,-0.484,-0.836,192.0,0.0,0.0,0.0,0.0,0.0,0.0,0.0,0.0,0.0,1.67814046761169E+09,0.0,2023-03-06 14:07:47.611
175.0,-783.7415675808870,-3266.0145480650100,10757.402867961300,-13910.630513504800,20690.09342075510,0.0,0.0,0.0,0.41400000000000000,-0.484,-0.836,192.0,0.0,0.0,0.0,0.0,0.0,0.0,0.0,0.0,0.0,1.67814046761567E+09,0.0,2023-03-06 14:07:47.615
176.0,-795.3644746976470,-3267.713280643620,10712.364102883800,-13904.03674889050,20672.14496995750,0.0,0.0,0.0,0.41400000000000000,-0.484,-0.836,192.0,0.0,0.0,0.0,0.0,0.0,0.0,0.0,0.0,0.0,1.67814046761972E+09,0.0,2023-03-06 14:07:47.619
177.0,-791.0505880177720,-3268.6967573996500,10732.12304498230,-13926.455548579200,20661.66200180790,0.0,0.0,0.0,0.41000000000000000,-0.47800000000000000,-0.8260000000000000,192.0,12.0,208.0,241.0,16.0,230.0,48.0,0.0,0.0,0.0,1.6781404676247E+09,0.0,2023-03-06 14:07:47.624
178.0,-779.3606256676470,-3263.8240771083900,10769.293996011500,-13925.51677531200,20671.586176346100,0.0,0.0,0.0,0.41000000000000000,-0.47800000000000000,-0.8260000000000000,192.0,0.0,0.0,0.0,0.0,0.0,0.0,0.0,0.0,0.0,1.67814046762875E+09,0.0,2023-03-06 14:07:47.628
179.0,-778.3771489116130,-3262.393565463250,10765.740068643100,-13916.79959497450,20674.603661847600,0.0,0.0,0.0,0.41000000000000000,-0.47800000000000000,-0.8260000000000000,192.0,0.0,0.0,0.0,0.0,0.0,0.0,0.0,0.0,0.0,1.67814046763174E+09,0.0,2023-03-06 14:07:47.631
180.0,-790.15651823956,-3265.545161431450,10721.304800666000,-13915.61495251830,20656.4763970943,0.0,0.0,0.0,0.41000000000000000,-0.47800000000000000,-0.8260000000000000,192.0,0.0,0.0,0.0,0.0,0.0,0.0,0.0,0.0,0.0,1.67814046763576E+09,0.0,2023-03-06 14:07:47.635
181.0,-787.3625501826470,-3266.55098993194,10729.820815303400,-13912.731577483600,20654.598850560100,0.0,0.0,0.0,0.41000000000000000,-0.47800000000000000,-0.8260000000000000,192.0,0.0,0.0,0.0,0.0,0.0,0.0,0.0,0.0,0.0,1.67814046763978E+09,0.0,2023-03-06 14:07:47.639
182.0,-776.1643262105380,-3262.0582892964200,10768.914016355800,-13910.384644315800,20669.23924317830,0.0,0.0,0.0,0.41000000000000000,-0.47800000000000000,-0.8260000000000000,192.0,0.0,0.0,0.0,0.0,0.0,0.0,0.0,0.0,0.0,1.67814046764382E+09,0.0,2023-03-06 14:07:47.643
183.0,-776.1419744660820,-3262.1700480187,10772.982033846600,-13916.218449618600,20675.654193837000,0.0,0.0,0.0,0.41000000000000000,-0.47800000000000000,-0.8260000000000000,192.0,0.0,0.0,0.0,0.0,0.0,0.0,0.0,0.0,0.0,1.67814046764788E+09,0.0,2023-03-06 14:07:47.647
184.0,-788.6142478721440,-3262.4159172077100,10728.8820420363,-13913.111557139300,20658.242184906300,0.0,0.0,0.0,0.41000000000000000,-0.47800000000000000,-0.8260000000000000,192.0,0.0,0.0,0.0,0.0,0.0,0.0,0.0,0.0,0.0,1.67814046765287E+09,0.0,2023-03-06 14:07:47.652
185.0,-787.4743089049230,-3258.750231117040,10725.216355945600,-13908.015359403500,20654.330629626600,0.0,0.0,0.0,0.41000000000000000,-0.47800000000000000,-0.8260000000000000,192.0,0.0,0.0,0.0,0.0,0.0,0.0,0.0,0.0,0.0,1.67814046765686E+09,0.0,2023-03-06 14:07:47.656
186.0,-776.0972709771720,-3256.2691874825000,10762.566120930400,-13915.860821707300,20663.69601055340,0.0,0.0,0.0,0.41000000000000000,-0.47800000000000000,-0.8260000000000000,192.0,0.0,0.0,0.0,0.0,0.0,0.0,0.0,0.0,0.0,1.67814046765988E+09,0.0,2023-03-06 14:07:47.659
187.0,-772.7892127977860,-3254.145771759250,10773.630234435800,-13916.397263574300,20669.730981556300,0.0,0.0,0.0,0.40800000000000000,-0.47600000000000000,-0.8240000000000000,192.0,12.0,192.0,241.0,32.0,230.0,64.0,0.0,0.0,0.0,1.67814046766388E+09,0.0,2023-03-06 14:07:47.663
188.0,-782.4898698913900,-3253.9893095480600,10736.034600262000,-13908.864725692800,20647.26747837870,0.0,0.0,0.0,0.40800000000000000,-0.47600000000000000,-0.8240000000000000,192.0,0.0,0.0,0.0,0.0,0.0,0.0,0.0,0.0,0.0,1.67814046766789E+09,0.0,2023-03-06 14:07:47.667
189.0,-781.0146547573390,-3254.682213626170,10719.539012854000,-13904.014397146000,20638.349132341000,0.0,0.0,0.0,0.40800000000000000,-0.47600000000000000,-0.8240000000000000,192.0,0.0,0.0,0.0,0.0,0.0,0.0,0.0,0.0,0.0,1.6781404676719E+09,0.0,2023-03-06 14:07:47.671
190.0,-772.6774540755100,-3255.129248515280,10755.905301082800,-13909.021187904000,20655.93995522740,0.0,0.0,0.0,0.40800000000000000,-0.47600000000000000,-0.8240000000000000,192.0,0.0,0.0,0.0,0.0,0.0,0.0,0.0,0.0,0.0,1.67814046767594E+09,0.0,2023-03-06 14:07:47.675
191.0,-772.4986401198670,-3256.7609258605200,10773.741993158100,-13917.403092074800,20655.559975571600,0.0,0.0,0.0,0.40800000000000000,-0.47600000000000000,-0.8240000000000000,192.0,0.0,0.0,0.0,0.0,0.0,0.0,0.0,0.0,0.0,1.67814046767996E+09,0.0,2023-03-06 14:07:47.679
192.0,-783.4062914140570,-3260.314853228910,10739.432065419200,-13926.410845090300,20636.717454995800,0.0,0.0,0.0,0.40800000000000000,-0.47600000000000000,-0.8240000000000000,192.0,0.0,0.0,0.0,0.0,0.0,0.0,0.0,0.0,0.0,1.67814046768511E+09,0.0,2023-03-06 14:07:47.685
193.0,-789.4189106725350,-3261.745364874050,10709.771300527000,-13923.0357316775,20625.60863800150,0.0,0.0,0.0,0.40800000000000000,-0.47600000000000000,-0.8240000000000000,192.0,0.0,0.0,0.0,0.0,0.0,0.0,0.0,0.0,0.0,1.678140467688E+09,0.0,2023-03-06 14:07:47.688
194.0,-777.5277826223120,-3257.587940405360,10741.466074164600,-13922.700455510700,20636.38217882900,0.0,0.0,0.0,0.40800000000000000,-0.47600000000000000,-0.8240000000000000,192.0,0.0,0.0,0.0,0.0,0.0,0.0,0.0,0.0,0.0,1.67814046769103E+09,0.0,2023-03-06 14:07:47.691
195.0,-765.8825237610970,-3252.6705566251900,10767.08117331040,-13922.61104853290,20651.13433016950,0.0,0.0,0.0,0.40800000000000000,-0.47600000000000000,-0.8240000000000000,192.0,0.0,0.0,0.0,0.0,0.0,0.0,0.0,0.0,0.0,1.67814046769603E+09,0.0,2023-03-06 14:07:47.696
196.0,-775.091442476683,-3254.7939723484500,10743.544786399000,-13928.444853835700,20636.89626895150,0.0,0.0,0.0,0.40800000000000000,-0.47600000000000000,-0.8240000000000000,192.0,0.0,0.0,0.0,0.0,0.0,0.0,0.0,0.0,0.0,1.67814046770006E+09,0.0,2023-03-06 14:07:47.700
197.0,-783.0710152472280,-3254.034013036970,10707.759643526000,-13923.192193888700,20626.994446157700,0.0,0.0,0.0,0.41200000000000000,-0.47800000000000000,-0.8280000000000000,192.0,12.0,224.0,241.0,16.0,230.0,32.0,0.0,0.0,0.0,1.67814046770413E+09,0.0,2023-03-06 14:07:47.704
198.0,-775.5384773657890,-3255.553931659930,10736.07930375090,-13918.766548486500,20643.691199265900,0.0,0.0,0.0,0.41200000000000000,-0.47800000000000000,-0.8280000000000000,192.0,0.0,0.0,0.0,0.0,0.0,0.0,0.0,0.0,0.0,1.67814046770808E+09,0.0,2023-03-06 14:07:47.708
199.0,-766.6871865614880,-3256.090373526860,10769.137533800300,-13924.823871233900,20648.496824323800,0.0,0.0,0.0,0.41200000000000000,-0.47800000000000000,-0.8280000000000000,192.0,0.0,0.0,0.0,0.0,0.0,0.0,0.0,0.0,0.0,1.67814046771219E+09,0.0,2023-03-06 14:07:47.712
200.0,-771.5151633638340,-3257.1856090051700,10755.011231304600,-13921.51581305450,20636.98567592930,0.0,0.0,0.0,0.41200000000000000,-0.47800000000000000,-0.8280000000000000,192.0,0.0,0.0,0.0,0.0,0.0,0.0,0.0,0.0,0.0,1.67814046771612E+09,0.0,2023-03-06 14:07:47.716
201.0,-781.0817099907050,-3257.8338095943700,10712.431158117200,-13918.878307208800,20621.071233877100,0.0,0.0,0.0,0.41200000000000000,-0.47800000000000000,-0.8280000000000000,192.0,0.0,0.0,0.0,0.0,0.0,0.0,0.0,0.0,0.0,1.67814046771919E+09,0.0,2023-03-06 14:07:47.719
202.0,-776.4325471440010,-3261.2089230071200,10732.681838593700,-13926.85787997940,20625.496879279200,0.0,0.0,0.0,0.41200000000000000,-0.47800000000000000,-0.8280000000000000,192.0,0.0,0.0,0.0,0.0,0.0,0.0,0.0,0.0,0.0,1.6781404677242E+09,0.0,2023-03-06 14:07:47.724
203.0,-769.5929133406780,-3262.5053241855300,10768.243464022100,-13927.37197010180,20637.343303840600,0.0,0.0,0.0,0.41200000000000000,-0.47800000000000000,-0.8280000000000000,192.0,0.0,0.0,0.0,0.0,0.0,0.0,0.0,0.0,0.0,1.67814046772819E+09,0.0,2023-03-06 14:07:47.728
204.0,-774.3761866541130,-3264.561684675420,10760.643870907300,-13930.992952703600,20639.064388163600,0.0,0.0,0.0,0.41200000000000000,-0.47800000000000000,-0.8280000000000000,192.0,0.0,0.0,0.0,0.0,0.0,0.0,0.0,0.0,0.0,1.67814046773221E+09,0.0,2023-03-06 14:07:47.732
205.0,-785.9096867930520,-3266.618045165310,10712.699379050700,-13931.529394570500,20614.74569019620,0.0,0.0,0.0,0.41200000000000000,-0.47800000000000000,-0.8280000000000000,192.0,0.0,0.0,0.0,0.0,0.0,0.0,0.0,0.0,0.0,1.67814046773621E+09,0.0,2023-03-06 14:07:47.736
206.0,-781.5958001131770,-3264.4052224642300,10719.851937276400,-13933.451644593700,20613.69515820680,0.0,0.0,0.0,0.41200000000000000,-0.47800000000000000,-0.8280000000000000,192.0,0.0,0.0,0.0,0.0,0.0,0.0,0.0,0.0,0.0,1.67814046774026E+09,0.0,2023-03-06 14:07:47.740
207.0,-772.4315848865020,-3259.398431706240,10758.811027862000,-13933.362237615900,20628.536716525200,0.0,0.0,0.0,0.41400000000000000,-0.482,-0.8240000000000000,192.0,12.0,240.0,240.0,240.0,230.0,64.0,0.0,0.0,0.0,1.67814046774361E+09,0.0,2023-03-06 14:07:47.743
208.0,-769.5482098517670,-3254.9504345596400,10763.639004664300,-13933.1387201713,20630.973056670800,0.0,0.0,0.0,0.41400000000000000,-0.482,-0.8240000000000000,192.0,0.0,0.0,0.0,0.0,0.0,0.0,0.0,0.0,0.0,1.67814046774728E+09,0.0,2023-03-06 14:07:47.747
209.0,-782.0428350022840,-3257.297367727440,10718.086149464400,-13930.300048625500,20608.88953314900,0.0,0.0,0.0,0.41400000000000000,-0.482,-0.8240000000000000,192.0,0.0,0.0,0.0,0.0,0.0,0.0,0.0,0.0,0.0,1.67814046775135E+09,0.0,2023-03-06 14:07:47.751
210.0,-788.055454260761,-3259.4431351951500,10709.816004015900,-13929.361275358400,20608.39779477090,0.0,0.0,0.0,0.41400000000000000,-0.482,-0.8240000000000000,192.0,0.0,0.0,0.0,0.0,0.0,0.0,0.0,0.0,0.0,1.67814046775536E+09,0.0,2023-03-06 14:07:47.755
211.0,-773.5938755981770,-3257.7667543610000,10749.445646935200,-13924.935629956200,20627.821460702600,0.0,0.0,0.0,0.41400000000000000,-0.482,-0.8240000000000000,192.0,0.0,0.0,0.0,0.0,0.0,0.0,0.0,0.0,0.0,1.67814046776038E+09,0.0,2023-03-06 14:07:47.760
212.0,-765.0555092162500,-3259.6666526397100,10764.13074304230,-13921.784033988000,20628.827289203100,0.0,0.0,0.0,0.41400000000000000,-0.482,-0.8240000000000000,192.0,0.0,0.0,0.0,0.0,0.0,0.0,0.0,0.0,0.0,1.67814046776435E+09,0.0,2023-03-06 14:07:47.764
213.0,-776.7678233108310,-3261.521847429500,10724.344637911900,-13927.081397423900,20609.291864549100,0.0,0.0,0.0,0.41400000000000000,-0.482,-0.8240000000000000,192.0,0.0,0.0,0.0,0.0,0.0,0.0,0.0,0.0,0.0,1.67814046776836E+09,0.0,2023-03-06 14:07:47.768
214.0,-779.1818117120040,-3260.627777651280,10705.792690014000,-13927.841356735400,20610.051823860600,0.0,0.0,0.0,0.41400000000000000,-0.482,-0.8240000000000000,192.0,0.0,0.0,0.0,0.0,0.0,0.0,0.0,0.0,0.0,1.67814046777139E+09,0.0,2023-03-06 14:07:47.771
215.0,-767.8047737842530,-3257.744402616550,10743.835359076900,-13928.914240469200,20622.12176586650,0.0,0.0,0.0,0.41400000000000000,-0.482,-0.8240000000000000,192.0,0.0,0.0,0.0,0.0,0.0,0.0,0.0,0.0,0.0,1.67814046777542E+09,0.0,2023-03-06 14:07:47.775
216.0,-762.6191690706220,-3256.69387062715,10765.22597852060,-13931.171766659200,20623.4181670449,0.0,0.0,0.0,0.41400000000000000,-0.482,-0.8240000000000000,192.0,0.0,0.0,0.0,0.0,0.0,0.0,0.0,0.0,0.0,1.67814046777943E+09,0.0,2023-03-06 14:07:47.779
217.0,-770.5093348633450,-3258.5267136724800,10734.559385127900,-13932.982257960100,20610.27534130520,0.0,0.0,0.0,0.42,-0.47800000000000000,-0.8220000000000000,192.0,13.0,32.0,241.0,16.0,230.0,80.0,0.0,0.0,0.0,1.67814046778347E+09,0.0,2023-03-06 14:07:47.783
218.0,-774.3985383985690,-3257.096202027350,10706.195021414200,-13936.603240561900,20599.658262688900,0.0,0.0,0.0,0.42,-0.47800000000000000,-0.8220000000000000,192.0,0.0,0.0,0.0,0.0,0.0,0.0,0.0,0.0,0.0,1.67814046778844E+09,0.0,2023-03-06 14:07:47.788
