Sample Index,EXG Channel 0,EXG Channel 1,EXG Channel 2,EXG Channel 3,EXG Channel 4,EXG Channel 5,EXG Channel 6,EXG Channel 7,Accel Channel 0,Accel Channel 1,Accel Channel 2, Other, Other, Other, Other, Other, Other, Other,Analog Channel 0,Analog Channel 1,Analog Channel 2, Timestamp, Other, Timestamp (Formatted)
48.0,-653.3638421730810,-3043.2570628234200,10746.763437600500,-13622.40476875360,21381.209359313200,0.0,0.0,0.0,0.41600000000000000,-0.484,-0.8160000000000000,192.0,13.0,0.0,240.0,224.0,230.0,128.0,0.0,0.0,0.0,1.67814052229457E+09,0.0,2023-03-06 14:08:42.294
49.0,-663.3774236890580,-3045.8051616913300,10707.133794681300,-13628.573850223300,21364.266737016100,0.0,0.0,0.0,0.41600000000000000,-0.484,-0.8160000000000000,192.0,0.0,0.0,0.0,0.0,0.0,0.0,0.0,0.0,0.0,1.67814052229459E+09,0.0,2023-03-06 14:08:42.294
50.0,-661.1869527324380,-3047.749763458940,10733.17357697170,-13629.892603146100,21368.446513229200,0.0,0.0,0.0,0.41600000000000000,-0.484,-0.8160000000000000,192.0,0.0,0.0,0.0,0.0,0.0,0.0,0.0,0.0,0.0,1.6781405222946E+09,0.0,2023-03-06 14:08:42.294
51.0,-651.8886270390300,-3043.45822852352,10764.644833164800,-13622.74004492050,21384.76328668160,0.0,0.0,0.0,0.41600000000000000,-0.484,-0.8160000000000000,192.0,0.0,0.0,0.0,0.0,0.0,0.0,0.0,0.0,0.0,1.67814052229462E+09,0.0,2023-03-06 14:08:42.294
0.0,0.0,0.0,0.0,0.0,0.0,0.0,0.0,0.0,0.41400000000000000,-0.47200000000000000,-0.8260000000000000,192.0,12.0,240.0,241.0,64.0,230.0,48.0,0.0,0.0,0.0,1.67814052238016E+09,0.0,2023-03-06 14:08:42.380
1.0,-631.0568012066840,-2956.0405559588100,10635.809378124400,-13633.55828923680,20867.253347307800,0.0,0.0,0.0,0.41400000000000000,-0.47200000000000000,-0.8260000000000000,192.0,0.0,0.0,0.0,0.0,0.0,0.0,0.0,0.0,0.0,1.67814052239623E+09,0.0,2023-03-06 14:08:42.396
2.0,-628.1510744274940,-2958.074564704250,10653.44490449960,-13631.501928746900,20881.737277714900,0.0,0.0,0.0,0.41400000000000000,-0.47200000000000000,-0.8260000000000000,192.0,0.0,0.0,0.0,0.0,0.0,0.0,0.0,0.0,0.0,1.67814052240027E+09,0.0,2023-03-06 14:08:42.400
3.0,-620.4620743348690,-2957.5604745817800,10686.346672337900,-13636.285202060400,20899.90924595710,0.0,0.0,0.0,0.41400000000000000,-0.47200000000000000,-0.8260000000000000,192.0,0.0,0.0,0.0,0.0,0.0,0.0,0.0,0.0,0.0,1.67814052240331E+09,0.0,2023-03-06 14:08:42.403
4.0,-623.8595394920750,-2961.2485124169000,10681.16106762420,-13636.665181716100,20896.04239416630,0.0,0.0,0.0,0.41400000000000000,-0.47200000000000000,-0.8260000000000000,192.0,0.0,0.0,0.0,0.0,0.0,0.0,0.0,0.0,0.0,1.6781405224063E+09,0.0,2023-03-06 14:08:42.406
5.0,-638.2987664102040,-2965.4506403745000,10637.217538025100,-13630.138472335200,20878.27275732430,0.0,0.0,0.0,0.41400000000000000,-0.47200000000000000,-0.8260000000000000,192.0,0.0,0.0,0.0,0.0,0.0,0.0,0.0,0.0,0.0,1.67814052241032E+09,0.0,2023-03-06 14:08:42.410
6.0,-636.9353099984300,-2966.210599685980,10647.34287826330,-13630.563155479800,20888.398097562600,0.0,0.0,0.0,0.41400000000000000,-0.47200000000000000,-0.8260000000000000,192.0,0.0,0.0,0.0,0.0,0.0,0.0,0.0,0.0,0.0,1.67814052241436E+09,0.0,2023-03-06 14:08:42.414
7.0,-629.4474756059020,-2964.2212944294600,10686.167858382200,-13629.356161279200,20907.374728605100,0.0,0.0,0.0,0.41400000000000000,-0.47200000000000000,-0.8260000000000000,192.0,0.0,0.0,0.0,0.0,0.0,0.0,0.0,0.0,0.0,1.67814052241839E+09,0.0,2023-03-06 14:08:42.418
8.0,-629.0451442057070,-2964.4671636184700,10690.437041573200,-13627.612725211700,20907.441783838500,0.0,0.0,0.0,0.41400000000000000,-0.47800000000000000,-0.8280000000000000,192.0,12.0,240.0,241.0,16.0,230.0,32.0,0.0,0.0,0.0,1.67814052242337E+09,0.0,2023-03-06 14:08:42.423
9.0,-637.4046966319920,-2962.1425821951100,10648.527520719500,-13629.266754301400,20886.967585917400,0.0,0.0,0.0,0.41400000000000000,-0.47800000000000000,-0.8280000000000000,192.0,0.0,0.0,0.0,0.0,0.0,0.0,0.0,0.0,0.0,1.6781405224264E+09,0.0,2023-03-06 14:08:42.426
10.0,-634.2978041527040,-2957.7169367929600,10643.140750305700,-13631.323114791300,20882.765457959800,0.0,0.0,0.0,0.41400000000000000,-0.47800000000000000,-0.8280000000000000,192.0,0.0,0.0,0.0,0.0,0.0,0.0,0.0,0.0,0.0,1.67814052243038E+09,0.0,2023-03-06 14:08:42.430
11.0,-625.7594377707770,-2954.878265247140,10679.998776912500,-13637.782768938900,20898.18816163400,0.0,0.0,0.0,0.41400000000000000,-0.47800000000000000,-0.8280000000000000,192.0,0.0,0.0,0.0,0.0,0.0,0.0,0.0,0.0,0.0,1.67814052243439E+09,0.0,2023-03-06 14:08:42.434
12.0,-621.9596412133740,-2955.1688379250600,10692.538105552000,-13639.056818372800,20904.37959484810,0.0,0.0,0.0,0.41400000000000000,-0.47800000000000000,-0.8280000000000000,192.0,0.0,0.0,0.0,0.0,0.0,0.0,0.0,0.0,0.0,1.67814052243845E+09,0.0,2023-03-06 14:08:42.438
13.0,-628.9110337389750,-2956.7781635258400,10653.86958764430,-13636.262850315900,20889.023946407300,0.0,0.0,0.0,0.41400000000000000,-0.47800000000000000,-0.8280000000000000,192.0,0.0,0.0,0.0,0.0,0.0,0.0,0.0,0.0,0.0,1.67814052244243E+09,0.0,2023-03-06 14:08:42.442
14.0,-634.0519349636950,-2957.180494926040,10634.021238568000,-13634.072379359300,20884.84417019420,0.0,0.0,0.0,0.41400000000000000,-0.47800000000000000,-0.8280000000000000,192.0,0.0,0.0,0.0,0.0,0.0,0.0,0.0,0.0,0.0,1.67814052244643E+09,0.0,2023-03-06 14:08:42.446
15.0,-629.6709930504550,-2961.762602539370,10670.58869249690,-13636.776940438400,20896.288263355300,0.0,0.0,0.0,0.41400000000000000,-0.47800000000000000,-0.8280000000000000,192.0,0.0,0.0,0.0,0.0,0.0,0.0,0.0,0.0,0.0,1.67814052245053E+09,0.0,2023-03-06 14:08:42.450
16.0,-628.5087023387790,-2964.914198507570,10690.906428206700,-13639.79442593990,20901.742089002400,0.0,0.0,0.0,0.41400000000000000,-0.47800000000000000,-0.8280000000000000,192.0,0.0,0.0,0.0,0.0,0.0,0.0,0.0,0.0,0.0,1.67814052245454E+09,0.0,2023-03-06 14:08:42.454
17.0,-634.9460047419080,-2969.473954376450,10659.30106154690,-13639.280335817400,20889.85096095220,0.0,0.0,0.0,0.41400000000000000,-0.47800000000000000,-0.8280000000000000,192.0,0.0,0.0,0.0,0.0,0.0,0.0,0.0,0.0,0.0,1.67814052245849E+09,0.0,2023-03-06 14:08:42.458
18.0,-637.0694204651620,-2971.440907888520,10628.72387513210,-13639.906184662100,20876.17169334550,0.0,0.0,0.0,0.41200000000000000,-0.47800000000000000,-0.8300000000000000,192.0,12.0,224.0,241.0,16.0,230.0,16.0,0.0,0.0,0.0,1.67814052246249E+09,0.0,2023-03-06 14:08:42.462
19.0,-627.3911151160140,-2969.0045677428900,10662.16208483720,-13633.580640981300,20891.37087957510,0.0,0.0,0.0,0.41200000000000000,-0.47800000000000000,-0.8300000000000000,192.0,0.0,0.0,0.0,0.0,0.0,0.0,0.0,0.0,0.0,1.67814052246656E+09,0.0,2023-03-06 14:08:42.466
20.0,-621.6690685354550,-2965.629454330140,10688.06775666090,-13633.93826889260,20900.378632590600,0.0,0.0,0.0,0.41200000000000000,-0.47800000000000000,-0.8300000000000000,192.0,0.0,0.0,0.0,0.0,0.0,0.0,0.0,0.0,0.0,1.67814052246954E+09,0.0,2023-03-06 14:08:42.469
21.0,-629.067495950162,-2964.5565705962900,10664.218445327100,-13634.586469481800,20888.442801051500,0.0,0.0,0.0,0.41200000000000000,-0.47800000000000000,-0.8300000000000000,192.0,0.0,0.0,0.0,0.0,0.0,0.0,0.0,0.0,0.0,1.67814052247357E+09,0.0,2023-03-06 14:08:42.473
22.0,-639.6398710775220,-2967.8422770312200,10625.594630908300,-13636.352257293700,20872.260138065800,0.0,0.0,0.0,0.41200000000000000,-0.47800000000000000,-0.8300000000000000,192.0,0.0,0.0,0.0,0.0,0.0,0.0,0.0,0.0,0.0,1.67814052247858E+09,0.0,2023-03-06 14:08:42.478
23.0,-629.9615657283740,-2966.3670618971700,10654.316622533400,-13633.692399703600,20891.41558306400,0.0,0.0,0.0,0.41200000000000000,-0.47800000000000000,-0.8300000000000000,192.0,0.0,0.0,0.0,0.0,0.0,0.0,0.0,0.0,0.0,1.67814052248258E+09,0.0,2023-03-06 14:08:42.482
24.0,-623.0772284361400,-2961.6508438171000,10688.827715972400,-13634.564117737300,20905.117202415100,0.0,0.0,0.0,0.41200000000000000,-0.47800000000000000,-0.8300000000000000,192.0,0.0,0.0,0.0,0.0,0.0,0.0,0.0,0.0,0.0,1.67814052248665E+09,0.0,2023-03-06 14:08:42.486
25.0,-626.228824404338,-2962.4555066174900,10678.791782712000,-13633.088902603300,20895.863580210600,0.0,0.0,0.0,0.41200000000000000,-0.47800000000000000,-0.8300000000000000,192.0,0.0,0.0,0.0,0.0,0.0,0.0,0.0,0.0,0.0,1.67814052249063E+09,0.0,2023-03-06 14:08:42.490
26.0,-638.8352082771310,-2964.981253740940,10636.189357780100,-13631.568983980300,20878.07159162420,0.0,0.0,0.0,0.41200000000000000,-0.47800000000000000,-0.8300000000000000,192.0,0.0,0.0,0.0,0.0,0.0,0.0,0.0,0.0,0.0,1.67814052249368E+09,0.0,2023-03-06 14:08:42.493
27.0,-636.8011995316980,-2966.2329514304300,10652.573186465900,-13634.765283437400,20885.738239972400,0.0,0.0,0.0,0.41200000000000000,-0.47800000000000000,-0.8300000000000000,192.0,0.0,0.0,0.0,0.0,0.0,0.0,0.0,0.0,0.0,1.67814052249764E+09,0.0,2023-03-06 14:08:42.497
28.0,-623.6583737919780,-2960.82382927225,10690.54880029550,-13634.832338670800,20899.641025023600,0.0,0.0,0.0,0.41200000000000000,-0.47200000000000000,-0.8320000000000000,192.0,12.0,224.0,241.0,64.0,230.0,0.0,0.0,0.0,0.0,1.67814052250171E+09,0.0,2023-03-06 14:08:42.501
29.0,-620.7526470127880,-2957.2922536483100,10690.526448551000,-13630.27258280190,20898.590493034200,0.0,0.0,0.0,0.41200000000000000,-0.47200000000000000,-0.8320000000000000,192.0,0.0,0.0,0.0,0.0,0.0,0.0,0.0,0.0,0.0,1.67814052250574E+09,0.0,2023-03-06 14:08:42.505
30.0,-628.6428128055110,-2956.219369914460,10643.878357872800,-13628.327981034300,20880.37382130310,0.0,0.0,0.0,0.41200000000000000,-0.47200000000000000,-0.8320000000000000,192.0,0.0,0.0,0.0,0.0,0.0,0.0,0.0,0.0,0.0,1.67814052251077E+09,0.0,2023-03-06 14:08:42.510
31.0,-626.9440802269080,-2954.2971198913000,10646.24764278500,-13627.210393811500,20882.31842307070,0.0,0.0,0.0,0.41200000000000000,-0.47200000000000000,-0.8320000000000000,192.0,0.0,0.0,0.0,0.0,0.0,0.0,0.0,0.0,0.0,1.67814052251477E+09,0.0,2023-03-06 14:08:42.514
32.0,-622.2502138912930,-2953.87243674665,10682.166896124700,-13636.88869916070,20895.818876721700,0.0,0.0,0.0,0.41200000000000000,-0.47200000000000000,-0.8320000000000000,192.0,0.0,0.0,0.0,0.0,0.0,0.0,0.0,0.0,0.0,1.67814052251881E+09,0.0,2023-03-06 14:08:42.518
33.0,-624.3289261256370,-2958.342785637710,10688.268922361000,-13642.767207952400,20894.74599298790,0.0,0.0,0.0,0.41200000000000000,-0.47200000000000000,-0.8320000000000000,192.0,0.0,0.0,0.0,0.0,0.0,0.0,0.0,0.0,0.0,1.67814052252182E+09,0.0,2023-03-06 14:08:42.521
34.0,-637.4494001209020,-2962.857838017680,10642.827825883400,-13641.090827118300,20874.294146811300,0.0,0.0,0.0,0.41200000000000000,-0.47200000000000000,-0.8320000000000000,192.0,0.0,0.0,0.0,0.0,0.0,0.0,0.0,0.0,0.0,1.67814052252584E+09,0.0,2023-03-06 14:08:42.525
35.0,-640.064554222173,-2962.0978787062000,10634.378866479300,-13641.537862007400,20870.628460720600,0.0,0.0,0.0,0.41200000000000000,-0.47200000000000000,-0.8320000000000000,192.0,0.0,0.0,0.0,0.0,0.0,0.0,0.0,0.0,0.0,1.67814052252984E+09,0.0,2023-03-06 14:08:42.529
36.0,-627.9275569829410,-2959.6168350716600,10673.44971578710,-13643.393056797200,20878.406867791000,0.0,0.0,0.0,0.41200000000000000,-0.47200000000000000,-0.8320000000000000,192.0,0.0,0.0,0.0,0.0,0.0,0.0,0.0,0.0,0.0,1.67814052253387E+09,0.0,2023-03-06 14:08:42.533
37.0,-627.4805220938350,-2964.82479152975,10690.30293110640,-13639.146225350600,20880.57498700320,0.0,0.0,0.0,0.41200000000000000,-0.47200000000000000,-0.8320000000000000,192.0,0.0,0.0,0.0,0.0,0.0,0.0,0.0,0.0,0.0,1.67814052253786E+09,0.0,2023-03-06 14:08:42.537
38.0,-640.8468652781090,-2966.4341171305300,10653.802532410900,-13639.190928839600,20869.13089384210,0.0,0.0,0.0,0.41200000000000000,-0.468,-0.8280000000000000,192.0,12.0,224.0,241.0,96.0,230.0,32.0,0.0,0.0,0.0,1.67814052254288E+09,0.0,2023-03-06 14:08:42.542
39.0,-649.6311008490450,-2969.4516026320000,10633.797721123400,-13638.27450731690,20866.046353107300,0.0,0.0,0.0,0.41200000000000000,-0.468,-0.8280000000000000,192.0,0.0,0.0,0.0,0.0,0.0,0.0,0.0,0.0,0.0,1.67814052254692E+09,0.0,2023-03-06 14:08:42.546
40.0,-641.2939001672150,-2968.6692915760600,10670.611044241300,-13643.147187608100,20881.31259457020,0.0,0.0,0.0,0.41200000000000000,-0.468,-0.8280000000000000,192.0,0.0,0.0,0.0,0.0,0.0,0.0,0.0,0.0,0.0,1.67814052254994E+09,0.0,2023-03-06 14:08:42.549
41.0,-629.4698273503580,-2965.4506403745000,10692.113422407300,-13646.164673109600,20888.621615007100,0.0,0.0,0.0,0.41200000000000000,-0.468,-0.8280000000000000,192.0,0.0,0.0,0.0,0.0,0.0,0.0,0.0,0.0,0.0,1.67814052255392E+09,0.0,2023-03-06 14:08:42.553
42.0,-637.7176210543660,-2963.148410695600,10660.329241791900,-13643.035428885900,20881.42435329250,0.0,0.0,0.0,0.41200000000000000,-0.468,-0.8280000000000000,192.0,0.0,0.0,0.0,0.0,0.0,0.0,0.0,0.0,0.0,1.67814052255794E+09,0.0,2023-03-06 14:08:42.557
43.0,-648.6923275819220,-2962.1425821951100,10630.243793755000,-13637.738065450000,20873.93651890000,0.0,0.0,0.0,0.41200000000000000,-0.468,-0.8280000000000000,192.0,0.0,0.0,0.0,0.0,0.0,0.0,0.0,0.0,0.0,1.67814052256203E+09,0.0,2023-03-06 14:08:42.562
44.0,-633.7837140302320,-2962.656672317590,10664.77723893850,-13638.341562550300,20884.754763216300,0.0,0.0,0.0,0.41200000000000000,-0.468,-0.8280000000000000,192.0,0.0,0.0,0.0,0.0,0.0,0.0,0.0,0.0,0.0,1.67814052256599E+09,0.0,2023-03-06 14:08:42.565
45.0,-622.3619726135700,-2960.8685327611600,10691.97931194060,-13638.408617783600,20898.076402911700,0.0,0.0,0.0,0.41200000000000000,-0.468,-0.8280000000000000,192.0,0.0,0.0,0.0,0.0,0.0,0.0,0.0,0.0,0.0,1.67814052257103E+09,0.0,2023-03-06 14:08:42.571
46.0,-624.5300918257350,-2958.7451170379100,10671.371003552800,-13640.733199207000,20891.147362130600,0.0,0.0,0.0,0.41200000000000000,-0.468,-0.8280000000000000,192.0,0.0,0.0,0.0,0.0,0.0,0.0,0.0,0.0,0.0,1.67814052257507E+09,0.0,2023-03-06 14:08:42.575
47.0,-633.9848797303300,-2957.5157710928600,10633.082465300900,-13642.521338763400,20869.354411286600,0.0,0.0,0.0,0.41200000000000000,-0.468,-0.8280000000000000,192.0,0.0,0.0,0.0,0.0,0.0,0.0,0.0,0.0,0.0,1.67814052257805E+09,0.0,2023-03-06 14:08:42.578
48.0,-627.7710947717540,-2957.135791437120,10660.932738892200,-13642.65544923010,20876.37285904560,0.0,0.0,0.0,0.41600000000000000,-0.47000000000000000,-0.8260000000000000,192.0,13.0,0.0,241.0,80.0,230.0,48.0,0.0,0.0,0.0,1.67814052258204E+09,0.0,2023-03-06 14:08:42.582
49.0,-624.194815658905,-2956.82286701475,10694.952093953100,-13640.50968176240,20893.829571465200,0.0,0.0,0.0,0.41600000000000000,-0.47000000000000000,-0.8260000000000000,192.0,0.0,0.0,0.0,0.0,0.0,0.0,0.0,0.0,0.0,1.67814052258609E+09,0.0,2023-03-06 14:08:42.586
50.0,-627.9946122163070,-2956.174666425550,10685.050271159400,-13637.93923115010,20891.32617608620,0.0,0.0,0.0,0.41600000000000000,-0.47000000000000000,-0.8260000000000000,192.0,0.0,0.0,0.0,0.0,0.0,0.0,0.0,0.0,0.0,1.67814052259008E+09,0.0,2023-03-06 14:08:42.590
51.0,-640.3104234111810,-2954.3641751246700,10641.307907260400,-13629.534975234900,20875.79171368980,0.0,0.0,0.0,0.41600000000000000,-0.47000000000000000,-0.8260000000000000,192.0,0.0,0.0,0.0,0.0,0.0,0.0,0.0,0.0,0.0,1.67814052259418E+09,0.0,2023-03-06 14:08:42.594
52.0,-634.4989698528020,-2952.374869868140,10658.384640024300,-13631.859556658200,20878.630385235600,0.0,0.0,0.0,0.41600000000000000,-0.47000000000000000,-0.8260000000000000,192.0,0.0,0.0,0.0,0.0,0.0,0.0,0.0,0.0,0.0,1.67814052259821E+09,0.0,2023-03-06 14:08:42.598
53.0,-619.389190601014,-2949.022108199850,10696.673178276200,-13632.686571203100,20897.36114708910,0.0,0.0,0.0,0.41600000000000000,-0.47000000000000000,-0.8260000000000000,192.0,0.0,0.0,0.0,0.0,0.0,0.0,0.0,0.0,0.0,1.6781405226032E+09,0.0,2023-03-06 14:08:42.603
54.0,-616.5058155662790,-2946.675175032040,10695.555591053400,-13608.233762769000,20925.725510802900,0.0,0.0,0.0,0.41600000000000000,-0.47000000000000000,-0.8260000000000000,192.0,0.0,0.0,0.0,0.0,0.0,0.0,0.0,0.0,0.0,1.67814052260621E+09,0.0,2023-03-06 14:08:42.606
55.0,-630.5650628286680,-2949.3573843666800,10650.852102142800,-13599.06954754230,20903.150248903100,0.0,0.0,0.0,0.41600000000000000,-0.47000000000000000,-0.8260000000000000,192.0,0.0,0.0,0.0,0.0,0.0,0.0,0.0,0.0,0.0,1.67814052261017E+09,0.0,2023-03-06 14:08:42.610
56.0,-635.1471704420060,-2955.213541413970,10653.556663221900,-13630.697265946500,20875.925824156500,0.0,0.0,0.0,0.41600000000000000,-0.47000000000000000,-0.8260000000000000,192.0,0.0,0.0,0.0,0.0,0.0,0.0,0.0,0.0,0.0,1.6781405226142E+09,0.0,2023-03-06 14:08:42.614
57.0,-629.9168622394640,-2959.3933176271100,10690.459393317600,-13641.31434456280,20890.18623711900,0.0,0.0,0.0,0.41600000000000000,-0.47000000000000000,-0.8260000000000000,192.0,0.0,0.0,0.0,0.0,0.0,0.0,0.0,0.0,0.0,1.67814052261823E+09,0.0,2023-03-06 14:08:42.618
58.0,-632.7331820408320,-2961.5837885837300,10696.78493699850,-13626.22691705550,20907.24061813840,0.0,0.0,0.0,0.41400000000000000,-0.47200000000000000,-0.834,192.0,12.0,240.0,241.0,64.0,229.0,240.0,0.0,0.0,0.0,1.67814052262227E+09,0.0,2023-03-06 14:08:42.622
59.0,-645.3172141691700,-2963.371928140160,10651.902634132200,-13611.45241397050,20898.165809889500,0.0,0.0,0.0,0.41400000000000000,-0.47200000000000000,-0.834,192.0,0.0,0.0,0.0,0.0,0.0,0.0,0.0,0.0,0.0,1.67814052262625E+09,0.0,2023-03-06 14:08:42.626
60.0,-645.8983595250080,-2966.9705589974600,10642.045514827400,-13600.410652209600,20893.360184831600,0.0,0.0,0.0,0.41400000000000000,-0.47200000000000000,-0.834,192.0,0.0,0.0,0.0,0.0,0.0,0.0,0.0,0.0,0.0,1.67814052263027E+09,0.0,2023-03-06 14:08:42.630
61.0,-636.421219875958,-2966.657634575090,10682.032785658000,-13587.156067747600,20914.929618231000,0.0,0.0,0.0,0.41400000000000000,-0.47200000000000000,-0.834,192.0,0.0,0.0,0.0,0.0,0.0,0.0,0.0,0.0,0.0,1.67814052263328E+09,0.0,2023-03-06 14:08:42.633
62.0,-636.3318128981370,-2969.473954376450,10699.578905055400,-13582.417497923100,20923.266818912800,0.0,0.0,0.0,0.41400000000000000,-0.47200000000000000,-0.834,192.0,0.0,0.0,0.0,0.0,0.0,0.0,0.0,0.0,0.0,1.67814052263831E+09,0.0,2023-03-06 14:08:42.638
63.0,-649.3628799155810,-2973.139640467120,10662.653823215200,-13577.254244953900,20905.698347771000,0.0,0.0,0.0,0.41400000000000000,-0.47200000000000000,-0.834,192.0,0.0,0.0,0.0,0.0,0.0,0.0,0.0,0.0,0.0,1.67814052264239E+09,0.0,2023-03-06 14:08:42.642
64.0,-655.5766648741560,-2977.073547491260,10639.832692126400,-13576.091954242200,20902.502048313900,0.0,0.0,0.0,0.41400000000000000,-0.47200000000000000,-0.834,192.0,0.0,0.0,0.0,0.0,0.0,0.0,0.0,0.0,0.0,1.67814052264632E+09,0.0,2023-03-06 14:08:42.646
65.0,-645.8313042916420,-2978.012320758380,10674.880227432300,-13564.424343636600,20928.519478859800,0.0,0.0,0.0,0.41400000000000000,-0.47200000000000000,-0.834,192.0,0.0,0.0,0.0,0.0,0.0,0.0,0.0,0.0,0.0,1.67814052265037E+09,0.0,2023-03-06 14:08:42.650
66.0,-640.4221821334580,-2977.4758788914500,10695.421480586700,-13557.048267966300,20941.662304599600,0.0,0.0,0.0,0.41400000000000000,-0.47200000000000000,-0.834,192.0,0.0,0.0,0.0,0.0,0.0,0.0,0.0,0.0,0.0,1.67814052265438E+09,0.0,2023-03-06 14:08:42.654
67.0,-645.5630833581790,-2977.5205823803600,10667.21357908410,-13555.953032488000,20924.71968230240,0.0,0.0,0.0,0.41400000000000000,-0.47200000000000000,-0.834,192.0,0.0,0.0,0.0,0.0,0.0,0.0,0.0,0.0,0.0,1.67814052265859E+09,0.0,2023-03-06 14:08:42.658
68.0,-651.3745369165580,-2977.2300097024500,10634.468273457100,-13546.699410283500,20916.002501964900,0.0,0.0,0.0,0.40800000000000000,-0.47600000000000000,-0.836,192.0,12.0,192.0,241.0,32.0,229.0,224.0,0.0,0.0,0.0,1.67814052266148E+09,0.0,2023-03-06 14:08:42.661
69.0,-639.9527954998970,-2974.1007654787000,10665.894826161200,-13544.620698049200,20930.933467261000,0.0,0.0,0.0,0.40800000000000000,-0.47600000000000000,-0.836,192.0,0.0,0.0,0.0,0.0,0.0,0.0,0.0,0.0,0.0,1.67814052266547E+09,0.0,2023-03-06 14:08:42.665
70.0,-631.5261878402460,-2972.379681155640,10694.25918987500,-13540.798549747300,20947.56316513580,0.0,0.0,0.0,0.40800000000000000,-0.47600000000000000,-0.836,192.0,0.0,0.0,0.0,0.0,0.0,0.0,0.0,0.0,0.0,1.67814052266945E+09,0.0,2023-03-06 14:08:42.669
71.0,-640.9139205114750,-2973.7431375674200,10671.795686697400,-13541.044418936300,20945.797377323800,0.0,0.0,0.0,0.40800000000000000,-0.47600000000000000,-0.836,192.0,0.0,0.0,0.0,0.0,0.0,0.0,0.0,0.0,0.0,1.67814052267449E+09,0.0,2023-03-06 14:08:42.674
72.0,-652.0450892502180,-2971.5750183552500,10627.695694887100,-13539.658610780100,20924.026778224300,0.0,0.0,0.0,0.40800000000000000,-0.47600000000000000,-0.836,192.0,0.0,0.0,0.0,0.0,0.0,0.0,0.0,0.0,0.0,1.67814052267847E+09,0.0,2023-03-06 14:08:42.678
73.0,-642.4338391344360,-2967.7081665644800,10649.01925909750,-13531.25435486490,20934.42033939600,0.0,0.0,0.0,0.40800000000000000,-0.47600000000000000,-0.836,192.0,0.0,0.0,0.0,0.0,0.0,0.0,0.0,0.0,0.0,1.67814052268249E+09,0.0,2023-03-06 14:08:42.682
74.0,-626.2064726598830,-2968.1328497091400,10684.290311848000,-13532.461349065500,20946.602040124200,0.0,0.0,0.0,0.40800000000000000,-0.47600000000000000,-0.836,192.0,0.0,0.0,0.0,0.0,0.0,0.0,0.0,0.0,0.0,1.67814052268554E+09,0.0,2023-03-06 14:08:42.685
75.0,-631.1015046955950,-2974.1678207120700,10676.713070477600,-13536.641125278600,20944.970362778900,0.0,0.0,0.0,0.40800000000000000,-0.47600000000000000,-0.836,192.0,0.0,0.0,0.0,0.0,0.0,0.0,0.0,0.0,0.0,1.67814052268954E+09,0.0,2023-03-06 14:08:42.689
76.0,-647.485333381335,-2974.1678207120700,10633.462444956600,-13541.15617765860,20929.52530736030,0.0,0.0,0.0,0.40800000000000000,-0.47600000000000000,-0.836,192.0,0.0,0.0,0.0,0.0,0.0,0.0,0.0,0.0,0.0,1.67814052269357E+09,0.0,2023-03-06 14:08:42.693
77.0,-644.93723451343,-2976.7829748133400,10647.834616641400,-13541.759674758900,20938.778929564800,0.0,0.0,0.0,0.40800000000000000,-0.47600000000000000,-0.836,192.0,0.0,0.0,0.0,0.0,0.0,0.0,0.0,0.0,0.0,1.67814052269759E+09,0.0,2023-03-06 14:08:42.697
78.0,-628.2628331497710,-2971.0385764883300,10685.787878726500,-13539.882128224600,20952.1452727491,0.0,0.0,0.0,0.40800000000000000,-0.47600000000000000,-0.836,192.0,0.0,0.0,0.0,0.0,0.0,0.0,0.0,0.0,0.0,1.67814052270259E+09,0.0,2023-03-06 14:08:42.702
79.0,-627.1675976714610,-2969.1386782096200,10686.704300249100,-13542.296116625800,20943.606906367200,0.0,0.0,0.0,0.404,-0.47200000000000000,-0.84,192.0,12.0,160.0,241.0,64.0,229.0,192.0,0.0,0.0,0.0,1.67814052270666E+09,0.0,2023-03-06 14:08:42.706
80.0,-639.6622228219780,-2972.0667567332700,10640.39148573770,-13536.81993923430,20926.396063136600,0.0,0.0,0.0,0.404,-0.47200000000000000,-0.84,192.0,0.0,0.0,0.0,0.0,0.0,0.0,0.0,0.0,0.0,1.67814052271062E+09,0.0,2023-03-06 14:08:42.710
81.0,-641.003327489296,-2974.056061989790,10636.14465429120,-13526.739302484900,20933.727435317900,0.0,0.0,0.0,0.404,-0.47200000000000000,-0.84,192.0,0.0,0.0,0.0,0.0,0.0,0.0,0.0,0.0,0.0,1.67814052271368E+09,0.0,2023-03-06 14:08:42.713
82.0,-632.3308506406370,-2972.2008672000000,10670.141657607800,-13523.453596050000,20956.883842573600,0.0,0.0,0.0,0.404,-0.47200000000000000,-0.84,192.0,0.0,0.0,0.0,0.0,0.0,0.0,0.0,0.0,0.0,1.67814052271768E+09,0.0,2023-03-06 14:08:42.717
83.0,-629.6262895615450,-2973.5196201228600,10677.96476816710,-13523.498299538900,20963.991697310400,0.0,0.0,0.0,0.404,-0.47200000000000000,-0.84,192.0,0.0,0.0,0.0,0.0,0.0,0.0,0.0,0.0,0.0,1.67814052272171E+09,0.0,2023-03-06 14:08:42.721
84.0,-639.550464099701,-2975.7100910794800,10636.658744413700,-13521.508994282400,20942.176394722000,0.0,0.0,0.0,0.404,-0.47200000000000000,-0.84,192.0,0.0,0.0,0.0,0.0,0.0,0.0,0.0,0.0,0.0,1.6781405227257E+09,0.0,2023-03-06 14:08:42.725
85.0,-643.8419990351200,-2976.715919579970,10625.594630908300,-13520.704331482000,20935.962609763500,0.0,0.0,0.0,0.404,-0.47200000000000000,-0.84,192.0,0.0,0.0,0.0,0.0,0.0,0.0,0.0,0.0,0.0,1.67814052272971E+09,0.0,2023-03-06 14:08:42.729
86.0,-633.359030885581,-2974.056061989790,10665.984233139100,-13519.832613448200,20958.0461332853,0.0,0.0,0.0,0.404,-0.47200000000000000,-0.84,192.0,0.0,0.0,0.0,0.0,0.0,0.0,0.0,0.0,0.0,1.67814052273475E+09,0.0,2023-03-06 14:08:42.734
87.0,-624.6418505480110,-2972.0667567332700,10685.005567670500,-13516.032816890800,20966.67390664510,0.0,0.0,0.0,0.404,-0.47200000000000000,-0.84,192.0,0.0,0.0,0.0,0.0,0.0,0.0,0.0,0.0,0.0,1.67814052273877E+09,0.0,2023-03-06 14:08:42.738
88.0,-634.6107285750780,-2974.212524200980,10649.44394224210,-13514.91522966810,20948.412531425100,0.0,0.0,0.0,0.404,-0.47200000000000000,-0.84,192.0,0.0,0.0,0.0,0.0,0.0,0.0,0.0,0.0,0.0,1.67814052274197E+09,0.0,2023-03-06 14:08:42.741
89.0,-642.322080412159,-2974.436041645530,10625.0581890414,-13511.785985444300,20941.416435410600,0.0,0.0,0.0,0.404,-0.47400000000000000,-0.834,192.0,12.0,160.0,241.0,48.0,229.0,240.0,0.0,0.0,0.0,1.67814052274579E+09,0.0,2023-03-06 14:08:42.745
90.0,-634.9460047419080,-2974.2348759454300,10659.859855158300,-13517.977418658400,20956.213290240000,0.0,0.0,0.0,0.404,-0.47400000000000000,-0.834,192.0,0.0,0.0,0.0,0.0,0.0,0.0,0.0,0.0,0.0,1.67814052274982E+09,0.0,2023-03-06 14:08:42.749
91.0,-631.034449462229,-2974.3913381566200,10683.977387425600,-13524.884107695100,20964.349325221700,0.0,0.0,0.0,0.404,-0.47400000000000000,-0.834,192.0,0.0,0.0,0.0,0.0,0.0,0.0,0.0,0.0,0.0,1.67814052275386E+09,0.0,2023-03-06 14:08:42.753
92.0,-631.9285192404410,-2967.3281869087400,10662.944395893100,-13527.141633885100,20952.27938321580,0.0,0.0,0.0,0.404,-0.47400000000000000,-0.834,192.0,0.0,0.0,0.0,0.0,0.0,0.0,0.0,0.0,0.0,1.67814052275786E+09,0.0,2023-03-06 14:08:42.757
93.0,-639.6845745664330,-2966.4564688749900,10631.00375306650,-13523.408892561100,20940.47766214340,0.0,0.0,0.0,0.404,-0.47400000000000000,-0.834,192.0,0.0,0.0,0.0,0.0,0.0,0.0,0.0,0.0,0.0,1.67814052276188E+09,0.0,2023-03-06 14:08:42.761
94.0,-630.0956761951060,-2965.0930124632100,10662.87734065980,-13517.597439002700,20959.90132807510,0.0,0.0,0.0,0.404,-0.47400000000000000,-0.834,192.0,0.0,0.0,0.0,0.0,0.0,0.0,0.0,0.0,0.0,1.67814052276689E+09,0.0,2023-03-06 14:08:42.766
95.0,-621.8702342355530,-2962.1425821951100,10692.851029974300,-13518.692674481000,20970.58546192470,0.0,0.0,0.0,0.404,-0.47400000000000000,-0.834,192.0,0.0,0.0,0.0,0.0,0.0,0.0,0.0,0.0,0.0,1.67814052276999E+09,0.0,2023-03-06 14:08:42.769
96.0,-627.905205238486,-2965.987082241430,10673.047384386900,-13518.692674481000,20957.934374563000,0.0,0.0,0.0,0.404,-0.47400000000000000,-0.834,192.0,0.0,0.0,0.0,0.0,0.0,0.0,0.0,0.0,0.0,1.67814052277392E+09,0.0,2023-03-06 14:08:42.773
97.0,-633.4707896078580,-2967.238779930920,10630.57906992190,-13519.497337281400,20940.1423859766,0.0,0.0,0.0,0.404,-0.47400000000000000,-0.834,192.0,0.0,0.0,0.0,0.0,0.0,0.0,0.0,0.0,0.0,1.67814052277796E+09,0.0,2023-03-06 14:08:42.777
98.0,-629.939213983919,-2968.915160765070,10651.321488776400,-13521.933677427000,20950.491243659400,0.0,0.0,0.0,0.404,-0.47400000000000000,-0.834,192.0,0.0,0.0,0.0,0.0,0.0,0.0,0.0,0.0,0.0,1.67814052278198E+09,0.0,2023-03-06 14:08:42.781
99.0,-622.809007502676,-2966.277654919350,10683.664463003200,-13525.308790839800,20960.080142030700,0.0,0.0,0.0,0.4,-0.468,-0.836,192.0,12.0,128.0,241.0,96.0,229.0,224.0,0.0,0.0,0.0,1.678140522788E+09,0.0,2023-03-06 14:08:42.787
100.0,-626.3629348710700,-2966.4564688749900,10675.371965810300,-13527.25339260740,20957.263822229400,0.0,0.0,0.0,0.4,-0.468,-0.836,192.0,0.0,0.0,0.0,0.0,0.0,0.0,0.0,0.0,0.0,1.67814052279103E+09,0.0,2023-03-06 14:08:42.791
101.0,-636.711792553877,-2966.501172363900,10631.473139700100,-13530.561450786800,20941.215269710500,0.0,0.0,0.0,0.4,-0.468,-0.836,192.0,0.0,0.0,0.0,0.0,0.0,0.0,0.0,0.0,0.0,1.67814052279502E+09,0.0,2023-03-06 14:08:42.795
102.0,-634.7671907862650,-2970.725652065950,10641.352610749300,-13530.87437520910,20947.2949442023,0.0,0.0,0.0,0.4,-0.468,-0.836,192.0,0.0,0.0,0.0,0.0,0.0,0.0,0.0,0.0,0.0,1.67814052279805E+09,0.0,2023-03-06 14:08:42.798
103.0,-625.6253273040450,-2969.988044498930,10676.400146055200,-13527.789834474300,20961.77887460930,0.0,0.0,0.0,0.4,-0.468,-0.836,192.0,0.0,0.0,0.0,0.0,0.0,0.0,0.0,0.0,0.0,1.67814052280206E+09,0.0,2023-03-06 14:08:42.802
104.0,-627.0111354602740,-2970.9268177660500,10678.434154800700,-13530.315581597800,20959.633107141600,0.0,0.0,0.0,0.4,-0.468,-0.836,192.0,0.0,0.0,0.0,0.0,0.0,0.0,0.0,0.0,0.0,1.6781405228061E+09,0.0,2023-03-06 14:08:42.806
105.0,-638.2317111768380,-2972.044404988810,10637.798683380900,-13525.82288096220,20940.85764179920,0.0,0.0,0.0,0.4,-0.468,-0.836,192.0,0.0,0.0,0.0,0.0,0.0,0.0,0.0,0.0,0.0,1.67814052281037E+09,0.0,2023-03-06 14:08:42.810
106.0,-633.940176241419,-2971.01622474387,10638.223366525600,-13518.156232614100,20948.01020002490,0.0,0.0,0.0,0.4,-0.468,-0.836,192.0,0.0,0.0,0.0,0.0,0.0,0.0,0.0,0.0,0.0,1.67814052281418E+09,0.0,2023-03-06 14:08:42.814
107.0,-628.9557372278860,-2971.2844456773300,10676.73542222210,-13516.05516863530,20975.27932826030,0.0,0.0,0.0,0.4,-0.468,-0.836,192.0,0.0,0.0,0.0,0.0,0.0,0.0,0.0,0.0,0.0,1.67814052281819E+09,0.0,2023-03-06 14:08:42.818
108.0,-630.5874145731230,-2972.022053244360,10687.374852582800,-13515.541078512800,20983.035383586300,0.0,0.0,0.0,0.4,-0.468,-0.836,192.0,0.0,0.0,0.0,0.0,0.0,0.0,0.0,0.0,0.0,1.67814052282221E+09,0.0,2023-03-06 14:08:42.822
109.0,-635.4377431199240,-2968.1104979646800,10645.73355266260,-13511.763633699900,20964.505787432900,0.0,0.0,0.0,0.406,-0.47200000000000000,-0.8320000000000000,192.0,12.0,176.0,241.0,64.0,230.0,0.0,0.0,0.0,0.0,1.6781405228262E+09,0.0,2023-03-06 14:08:42.826
110.0,-635.0577634641840,-2967.507000864390,10631.271974000000,-13509.282590065300,20950.178319237000,0.0,0.0,0.0,0.406,-0.47200000000000000,-0.8320000000000000,192.0,0.0,0.0,0.0,0.0,0.0,0.0,0.0,0.0,0.0,1.67814052282918E+09,0.0,2023-03-06 14:08:42.829
111.0,-626.9664319713630,-2967.7305183089400,10666.788895939500,-13510.936619155000,20962.449426943000,0.0,0.0,0.0,0.406,-0.47200000000000000,-0.8320000000000000,192.0,0.0,0.0,0.0,0.0,0.0,0.0,0.0,0.0,0.0,1.67814052283425E+09,0.0,2023-03-06 14:08:42.834
112.0,-623.7030772808880,-2968.848105531710,10680.73638447960,-13512.523593011300,20976.016935827400,0.0,0.0,0.0,0.406,-0.47200000000000000,-0.8320000000000000,192.0,0.0,0.0,0.0,0.0,0.0,0.0,0.0,0.0,0.0,1.67814052283822E+09,0.0,2023-03-06 14:08:42.838
113.0,-632.6661268074660,-2967.7528700534000,10643.006639839000,-13513.440014534000,20962.069447287300,0.0,0.0,0.0,0.406,-0.47200000000000000,-0.8320000000000000,192.0,0.0,0.0,0.0,0.0,0.0,0.0,0.0,0.0,0.0,1.6781405228424E+09,0.0,2023-03-06 14:08:42.842
114.0,-641.3609554005810,-2968.7810502983400,10617.615058137800,-13514.512898267900,20948.591345380700,0.0,0.0,0.0,0.406,-0.47200000000000000,-0.8320000000000000,192.0,0.0,0.0,0.0,0.0,0.0,0.0,0.0,0.0,0.0,1.67814052284624E+09,0.0,2023-03-06 14:08:42.846
115.0,-629.8498070060980,-2967.7752217978500,10654.383677766800,-13517.91036342510,20961.48830193140,0.0,0.0,0.0,0.406,-0.47200000000000000,-0.8320000000000000,192.0,0.0,0.0,0.0,0.0,0.0,0.0,0.0,0.0,0.0,1.67814052285026E+09,0.0,2023-03-06 14:08:42.850
116.0,-623.613670303067,-2964.8694950186600,10677.607140255800,-13517.418625047000,20973.848816615200,0.0,0.0,0.0,0.406,-0.47200000000000000,-0.8320000000000000,192.0,0.0,0.0,0.0,0.0,0.0,0.0,0.0,0.0,0.0,1.67814052285329E+09,0.0,2023-03-06 14:08:42.853
117.0,-635.5942053311120,-2965.54004735232,10651.992041110000,-13515.63048549060,20961.08597053120,0.0,0.0,0.0,0.406,-0.47200000000000000,-0.8320000000000000,192.0,0.0,0.0,0.0,0.0,0.0,0.0,0.0,0.0,0.0,1.67814052285729E+09,0.0,2023-03-06 14:08:42.857
118.0,-643.6184815905670,-2966.5235241083500,10619.984343050000,-13509.751976698900,20941.86347029970,0.0,0.0,0.0,0.406,-0.47200000000000000,-0.8320000000000000,192.0,0.0,0.0,0.0,0.0,0.0,0.0,0.0,0.0,0.0,1.67814052286131E+09,0.0,2023-03-06 14:08:42.861
119.0,-631.3473738846030,-2968.266960175870,10650.293308531400,-13512.277723822300,20956.10153151770,0.0,0.0,0.0,0.41000000000000000,-0.47800000000000000,-0.8300000000000000,192.0,12.0,208.0,241.0,16.0,230.0,16.0,0.0,0.0,0.0,1.67814052286635E+09,0.0,2023-03-06 14:08:42.866
120.0,-618.2492516337930,-2964.1989426850000,10683.865628703300,-13517.86565993620,20967.00918281190,0.0,0.0,0.0,0.41000000000000000,-0.47800000000000000,-0.8300000000000000,192.0,0.0,0.0,0.0,0.0,0.0,0.0,0.0,0.0,0.0,1.67814052287042E+09,0.0,2023-03-06 14:08:42.870
121.0,-626.9217284824530,-2964.8024397852900,10669.001718640500,-13518.938543670000,20960.571880408800,0.0,0.0,0.0,0.41000000000000000,-0.47800000000000000,-0.8300000000000000,192.0,0.0,0.0,0.0,0.0,0.0,0.0,0.0,0.0,0.0,1.67814052287437E+09,0.0,2023-03-06 14:08:42.874
122.0,-638.9469669994080,-2969.2280851874500,10629.886165843700,-13518.96089541450,20936.990790008400,0.0,0.0,0.0,0.41000000000000000,-0.47800000000000000,-0.8300000000000000,192.0,0.0,0.0,0.0,0.0,0.0,0.0,0.0,0.0,0.0,1.67814052287839E+09,0.0,2023-03-06 14:08:42.878
123.0,-634.163693685972,-2968.6916433205200,10651.030916098500,-13534.070674666200,20933.347455662200,0.0,0.0,0.0,0.41000000000000000,-0.47800000000000000,-0.8300000000000000,192.0,0.0,0.0,0.0,0.0,0.0,0.0,0.0,0.0,0.0,1.67814052288141E+09,0.0,2023-03-06 14:08:42.881
124.0,-622.1831586579270,-2966.7470415529100,10684.044442659000,-13540.463273580500,20945.10447324570,0.0,0.0,0.0,0.41000000000000000,-0.47800000000000000,-0.8300000000000000,192.0,0.0,0.0,0.0,0.0,0.0,0.0,0.0,0.0,0.0,1.67814052288543E+09,0.0,2023-03-06 14:08:42.885
125.0,-624.418333103458,-2968.892809020620,10677.405974555700,-13540.01623869140,20939.0918539872,0.0,0.0,0.0,0.41000000000000000,-0.47800000000000000,-0.8300000000000000,192.0,0.0,0.0,0.0,0.0,0.0,0.0,0.0,0.0,0.0,1.67814052288943E+09,0.0,2023-03-06 14:08:42.889
126.0,-636.8906065095190,-2969.3621956541800,10632.031933311500,-13540.373866602600,20916.449536854000,0.0,0.0,0.0,0.41000000000000000,-0.47800000000000000,-0.8300000000000000,192.0,0.0,0.0,0.0,0.0,0.0,0.0,0.0,0.0,0.0,1.6781405228935E+09,0.0,2023-03-06 14:08:42.893
127.0,-633.8060657746870,-2967.886980520130,10643.543081705900,-13545.53711957180,20923.51268810190,0.0,0.0,0.0,0.41000000000000000,-0.47800000000000000,-0.8300000000000000,192.0,0.0,0.0,0.0,0.0,0.0,0.0,0.0,0.0,0.0,1.67814052289848E+09,0.0,2023-03-06 14:08:42.898
128.0,-623.8148360031650,-2967.596407842210,10684.491477548100,-13544.307773626800,20947.898441302600,0.0,0.0,0.0,0.41000000000000000,-0.47800000000000000,-0.8300000000000000,192.0,0.0,0.0,0.0,0.0,0.0,0.0,0.0,0.0,0.0,1.6781405229025E+09,0.0,2023-03-06 14:08:42.902
129.0,-624.6642022924670,-2968.177553198050,10688.246570616600,-13534.852985722200,20958.515519918900,0.0,0.0,0.0,0.41400000000000000,-0.47800000000000000,-0.84,192.0,12.0,240.0,241.0,16.0,229.0,192.0,0.0,0.0,0.0,1.67814052290655E+09,0.0,2023-03-06 14:08:42.906
130.0,-636.711792553877,-2970.6362450881300,10639.542119448400,-13529.443863564,20938.845984798200,0.0,0.0,0.0,0.41400000000000000,-0.47800000000000000,-0.84,192.0,0.0,0.0,0.0,0.0,0.0,0.0,0.0,0.0,0.0,1.67814052290955E+09,0.0,2023-03-06 14:08:42.909
131.0,-635.6165570755670,-2971.0609282327800,10634.82590136840,-13528.438035063500,20935.269705685300,0.0,0.0,0.0,0.41400000000000000,-0.47800000000000000,-0.84,192.0,0.0,0.0,0.0,0.0,0.0,0.0,0.0,0.0,0.0,1.67814052291362E+09,0.0,2023-03-06 14:08:42.913
132.0,-626.0053069597850,-2968.021090986860,10674.321433820900,-13527.655724007600,20947.540813391300,0.0,0.0,0.0,0.41400000000000000,-0.47800000000000000,-0.84,192.0,0.0,0.0,0.0,0.0,0.0,0.0,0.0,0.0,0.0,1.67814052291759E+09,0.0,2023-03-06 14:08:42.917
133.0,-624.7536092702880,-2969.3621956541800,10685.340843837400,-13531.656686265100,20948.323124447200,0.0,0.0,0.0,0.41400000000000000,-0.47800000000000000,-0.84,192.0,0.0,0.0,0.0,0.0,0.0,0.0,0.0,0.0,0.0,1.67814052292159E+09,0.0,2023-03-06 14:08:42.921
134.0,-635.0801152086400,-2970.3680241546700,10644.30304101740,-13532.282535109800,20934.599153351700,0.0,0.0,0.0,0.41400000000000000,-0.47800000000000000,-0.84,192.0,0.0,0.0,0.0,0.0,0.0,0.0,0.0,0.0,0.0,1.67814052292662E+09,0.0,2023-03-06 14:08:42.926
135.0,-641.4056588894920,-2971.150335210600,10627.069846042400,-13531.030837420300,20927.60305733720,0.0,0.0,0.0,0.41400000000000000,-0.47800000000000000,-0.84,192.0,0.0,0.0,0.0,0.0,0.0,0.0,0.0,0.0,0.0,1.67814052293063E+09,0.0,2023-03-06 14:08:42.930
136.0,-630.3638971285700,-2969.853934032190,10666.699488961600,-13529.376808330600,20945.551508134800,0.0,0.0,0.0,0.41400000000000000,-0.47800000000000000,-0.84,192.0,0.0,0.0,0.0,0.0,0.0,0.0,0.0,0.0,0.0,1.67814052293365E+09,0.0,2023-03-06 14:08:42.933
137.0,-623.4795598363350,-2967.663463075570,10685.765526982000,-13528.81801471930,20954.447502428000,0.0,0.0,0.0,0.41400000000000000,-0.47800000000000000,-0.84,192.0,0.0,0.0,0.0,0.0,0.0,0.0,0.0,0.0,0.0,1.67814052293767E+09,0.0,2023-03-06 14:08:42.937
138.0,-634.5883768306230,-2969.3174921652700,10649.309831775400,-13535.657648522600,20934.018007995800,0.0,0.0,0.0,0.41400000000000000,-0.47800000000000000,-0.84,192.0,0.0,0.0,0.0,0.0,0.0,0.0,0.0,0.0,0.0,1.67814052294167E+09,0.0,2023-03-06 14:08:42.941
139.0,-643.4173158904690,-2971.820887544260,10620.274915728000,-13526.918116440500,20929.05592072680,0.0,0.0,0.0,0.41600000000000000,-0.47400000000000000,-0.842,192.0,13.0,0.0,241.0,48.0,229.0,176.0,0.0,0.0,0.0,1.67814052294573E+09,0.0,2023-03-06 14:08:42.945
140.0,-638.3658216435700,-2972.2679224333700,10657.334108034900,-13521.397235560100,20944.948011034500,0.0,0.0,0.0,0.41600000000000000,-0.47400000000000000,-0.842,192.0,0.0,0.0,0.0,0.0,0.0,0.0,0.0,0.0,0.0,1.67814052294969E+09,0.0,2023-03-06 14:08:42.949
141.0,-630.3415453841150,-2970.4574311324900,10684.335015336900,-13525.91228794010,20953.86635707220,0.0,0.0,0.0,0.41600000000000000,-0.47400000000000000,-0.842,192.0,0.0,0.0,0.0,0.0,0.0,0.0,0.0,0.0,0.0,1.67814052295373E+09,0.0,2023-03-06 14:08:42.953
142.0,-639.2822431662370,-2973.3184544227700,10661.245663314500,-13526.53813678480,20946.065598257300,0.0,0.0,0.0,0.41600000000000000,-0.47400000000000000,-0.842,192.0,0.0,0.0,0.0,0.0,0.0,0.0,0.0,0.0,0.0,1.67814052295877E+09,0.0,2023-03-06 14:08:42.958
143.0,-644.356089157592,-2973.117288722670,10626.443997197600,-13527.543965285300,20927.915981759500,0.0,0.0,0.0,0.41600000000000000,-0.47400000000000000,-0.842,192.0,0.0,0.0,0.0,0.0,0.0,0.0,0.0,0.0,0.0,1.67814052296175E+09,0.0,2023-03-06 14:08:42.961
144.0,-637.2258826763490,-2969.0492712318000,10656.328279534400,-13530.025008919800,20931.492260872400,0.0,0.0,0.0,0.41600000000000000,-0.47400000000000000,-0.842,192.0,0.0,0.0,0.0,0.0,0.0,0.0,0.0,0.0,0.0,1.67814052296478E+09,0.0,2023-03-06 14:08:42.964
145.0,-631.257966906782,-2966.925855508550,10689.811192728400,-13530.673209509000,20939.740054576400,0.0,0.0,0.0,0.41600000000000000,-0.47400000000000000,-0.842,192.0,0.0,0.0,0.0,0.0,0.0,0.0,0.0,0.0,0.0,1.67814052296979E+09,0.0,2023-03-06 14:08:42.969
146.0,-630.0733244506510,-2968.5798845982400,10676.333090821900,-13525.129976884100,20931.04522598330,0.0,0.0,0.0,0.41600000000000000,-0.47400000000000000,-0.842,192.0,0.0,0.0,0.0,0.0,0.0,0.0,0.0,0.0,0.0,1.67814052297383E+09,0.0,2023-03-06 14:08:42.973
147.0,-634.5213215972570,-2971.373852655160,10633.350686234300,-13529.779139730800,20908.246446638900,0.0,0.0,0.0,0.41600000000000000,-0.47400000000000000,-0.842,192.0,0.0,0.0,0.0,0.0,0.0,0.0,0.0,0.0,0.0,1.67814052297784E+09,0.0,2023-03-06 14:08:42.977
148.0,-627.8605017495750,-2971.463259632980,10652.72964867710,-13533.10954965470,20922.372749134600,0.0,0.0,0.0,0.41600000000000000,-0.47400000000000000,-0.842,192.0,0.0,0.0,0.0,0.0,0.0,0.0,0.0,0.0,0.0,1.67814052298187E+09,0.0,2023-03-06 14:08:42.981
149.0,-615.5446905547010,-2970.0103962433800,10688.69360550570,-13538.608078790700,20938.398949909100,0.0,0.0,0.0,0.41200000000000000,-0.47200000000000000,-0.8320000000000000,192.0,12.0,224.0,241.0,64.0,230.0,0.0,0.0,0.0,0.0,1.6781405229859E+09,0.0,2023-03-06 14:08:42.985
150.0,-623.9712982143520,-2971.5750183552500,10682.949207180600,-13546.364134116700,20935.00148475190,0.0,0.0,0.0,0.41200000000000000,-0.47200000000000000,-0.8320000000000000,192.0,0.0,0.0,0.0,0.0,0.0,0.0,0.0,0.0,0.0,1.6781405229899E+09,0.0,2023-03-06 14:08:42.989
151.0,-637.9187867544640,-2972.6255503446500,10637.329296747400,-13545.559471316300,20916.427185109500,0.0,0.0,0.0,0.41200000000000000,-0.47200000000000000,-0.8320000000000000,192.0,0.0,0.0,0.0,0.0,0.0,0.0,0.0,0.0,0.0,1.67814052299292E+09,0.0,2023-03-06 14:08:42.992
152.0,-634.9460047419080,-2974.123117223160,10646.605270696300,-13542.944317215000,20920.361092133700,0.0,0.0,0.0,0.41200000000000000,-0.47200000000000000,-0.8320000000000000,192.0,0.0,0.0,0.0,0.0,0.0,0.0,0.0,0.0,0.0,1.67814052299805E+09,0.0,2023-03-06 14:08:42.998
153.0,-623.7477807697990,-2971.4856113774300,10684.647939759200,-13539.05511367980,20937.90721153110,0.0,0.0,0.0,0.41200000000000000,-0.47200000000000000,-0.8320000000000000,192.0,0.0,0.0,0.0,0.0,0.0,0.0,0.0,0.0,0.0,1.67814052300196E+09,0.0,2023-03-06 14:08:43.001
154.0,-624.775961014743,-2969.6751200765500,10687.665425260700,-13538.809244490800,20940.32119993220,0.0,0.0,0.0,0.41200000000000000,-0.47200000000000000,-0.8320000000000000,192.0,0.0,0.0,0.0,0.0,0.0,0.0,0.0,0.0,0.0,1.67814052300601E+09,0.0,2023-03-06 14:08:43.006
155.0,-638.0081937322850,-2969.6751200765500,10644.48185497310,-13537.959878201500,20927.021911981300,0.0,0.0,0.0,0.41200000000000000,-0.47200000000000000,-0.8320000000000000,192.0,0.0,0.0,0.0,0.0,0.0,0.0,0.0,0.0,0.0,1.67814052300999E+09,0.0,2023-03-06 14:08:43.009
156.0,-639.2822431662370,-2970.144506710110,10640.927927604700,-13531.857851965200,20929.413548638100,0.0,0.0,0.0,0.41200000000000000,-0.47200000000000000,-0.8320000000000000,192.0,0.0,0.0,0.0,0.0,0.0,0.0,0.0,0.0,0.0,1.67814052301401E+09,0.0,2023-03-06 14:08:43.014
157.0,-627.324059882648,-2966.277654919350,10678.031823400500,-13526.515785040400,20942.33285693320,0.0,0.0,0.0,0.41200000000000000,-0.47200000000000000,-0.8320000000000000,192.0,0.0,0.0,0.0,0.0,0.0,0.0,0.0,0.0,0.0,1.67814052301802E+09,0.0,2023-03-06 14:08:43.018
158.0,-624.261870892271,-2965.2271229299500,10688.470088061100,-13529.443863564,20948.233717469400,0.0,0.0,0.0,0.41200000000000000,-0.47200000000000000,-0.8320000000000000,192.0,0.0,0.0,0.0,0.0,0.0,0.0,0.0,0.0,0.0,1.67814052302104E+09,0.0,2023-03-06 14:08:43.021
159.0,-634.4766181083460,-2965.964730496970,10647.007602096500,-13528.952125186000,20933.168641706500,0.0,0.0,0.0,0.41200000000000000,-0.47200000000000000,-0.8320000000000000,192.0,0.0,0.0,0.0,0.0,0.0,0.0,0.0,0.0,0.0,1.67814052302608E+09,0.0,2023-03-06 14:08:43.026
160.0,-642.7914670457210,-2968.1104979646800,10629.796758865900,-13523.006561160900,20931.782833550300,0.0,0.0,0.0,0.404,-0.47200000000000000,-0.836,192.0,12.0,160.0,241.0,64.0,229.0,224.0,0.0,0.0,0.0,1.6781405230301E+09,0.0,2023-03-06 14:08:43.030
161.0,-632.6884785519220,-2968.0657944757700,10669.78402969650,-13526.046398406800,20950.80416808180,0.0,0.0,0.0,0.404,-0.47200000000000000,-0.836,192.0,0.0,0.0,0.0,0.0,0.0,0.0,0.0,0.0,0.0,1.67814052303411E+09,0.0,2023-03-06 14:08:43.034
162.0,-623.7477807697990,-2966.4117653860800,10690.481745062100,-13528.326276341200,20955.76625535090,0.0,0.0,0.0,0.404,-0.47200000000000000,-0.836,192.0,0.0,0.0,0.0,0.0,0.0,0.0,0.0,0.0,0.0,1.67814052303819E+09,0.0,2023-03-06 14:08:43.038
163.0,-633.359030885581,-2968.82575378725,10657.62468071280,-13528.370979830100,20940.924697032500,0.0,0.0,0.0,0.404,-0.47200000000000000,-0.836,192.0,0.0,0.0,0.0,0.0,0.0,0.0,0.0,0.0,0.0,1.67814052304221E+09,0.0,2023-03-06 14:08:43.042
164.0,-642.6350048345330,-2970.7033003215000,10628.366247220800,-13531.321410098200,20926.127842203100,0.0,0.0,0.0,0.404,-0.47200000000000000,-0.836,192.0,0.0,0.0,0.0,0.0,0.0,0.0,0.0,0.0,0.0,1.67814052304617E+09,0.0,2023-03-06 14:08:43.046
165.0,-633.3813826300360,-2970.0327479878400,10662.989099382100,-13532.3942938321,20940.76823482140,0.0,0.0,0.0,0.404,-0.47200000000000000,-0.836,192.0,0.0,0.0,0.0,0.0,0.0,0.0,0.0,0.0,0.0,1.67814052304918E+09,0.0,2023-03-06 14:08:43.049
166.0,-628.8439785056090,-2969.1386782096200,10687.955997938600,-13532.30488685430,20950.915926804100,0.0,0.0,0.0,0.404,-0.47200000000000000,-0.836,192.0,0.0,0.0,0.0,0.0,0.0,0.0,0.0,0.0,0.0,1.67814052305323E+09,0.0,2023-03-06 14:08:43.053
167.0,-641.7632868007760,-2974.8383730457300,10663.190265082200,-13531.097892653700,20938.2424876979,0.0,0.0,0.0,0.404,-0.47200000000000000,-0.836,192.0,0.0,0.0,0.0,0.0,0.0,0.0,0.0,0.0,0.0,1.6781405230582E+09,0.0,2023-03-06 14:08:43.058
168.0,-654.1014497401060,-2977.7888033138300,10626.041665797400,-13527.58866877420,20919.824650266700,0.0,0.0,0.0,0.404,-0.47200000000000000,-0.836,192.0,0.0,0.0,0.0,0.0,0.0,0.0,0.0,0.0,0.0,1.67814052306222E+09,0.0,2023-03-06 14:08:43.062
169.0,-643.1043914680950,-2974.503096878900,10653.757828922000,-13523.453596050000,20937.95191502000,0.0,0.0,0.0,0.404,-0.47200000000000000,-0.836,192.0,0.0,0.0,0.0,0.0,0.0,0.0,0.0,0.0,0.0,1.67814052306625E+09,0.0,2023-03-06 14:08:43.066
170.0,-630.8332837621310,-2970.5915415992200,10684.849105459300,-13529.689732753000,20951.497072159900,0.0,0.0,0.0,0.404,-0.47400000000000000,-0.838,192.0,12.0,160.0,241.0,48.0,229.0,208.0,0.0,0.0,0.0,1.67814052307029E+09,0.0,2023-03-06 14:08:43.070
171.0,-631.7497052847990,-2974.8607247901800,10671.929797164200,-13538.384561346100,20940.1423859766,0.0,0.0,0.0,0.404,-0.47400000000000000,-0.838,192.0,0.0,0.0,0.0,0.0,0.0,0.0,0.0,0.0,0.0,1.6781405230733E+09,0.0,2023-03-06 14:08:43.073
172.0,-644.1549234574940,-2977.7888033138300,10628.992096065500,-13541.044418936300,20923.51268810190,0.0,0.0,0.0,0.404,-0.47400000000000000,-0.838,192.0,0.0,0.0,0.0,0.0,0.0,0.0,0.0,0.0,0.0,1.6781405230773E+09,0.0,2023-03-06 14:08:43.077
173.0,-638.097600710106,-2976.4924021354200,10649.667459686700,-13546.632355050100,20929.10062421570,0.0,0.0,0.0,0.404,-0.47400000000000000,-0.838,192.0,0.0,0.0,0.0,0.0,0.0,0.0,0.0,0.0,0.0,1.67814052308129E+09,0.0,2023-03-06 14:08:43.081
174.0,-631.4144291179690,-2974.3913381566200,10686.369024082300,-13546.475892838900,20945.126824990100,0.0,0.0,0.0,0.404,-0.47400000000000000,-0.838,192.0,0.0,0.0,0.0,0.0,0.0,0.0,0.0,0.0,0.0,1.67814052308538E+09,0.0,2023-03-06 14:08:43.085
175.0,-635.4824466088350,-2974.279579434350,10681.988082169100,-13543.413703848600,20941.61760111070,0.0,0.0,0.0,0.404,-0.47400000000000000,-0.838,192.0,0.0,0.0,0.0,0.0,0.0,0.0,0.0,0.0,0.0,1.67814052309035E+09,0.0,2023-03-06 14:08:43.090
176.0,-645.7642490582760,-2973.720785822960,10638.335125247900,-13536.194090389500,20922.305693901300,0.0,0.0,0.0,0.404,-0.47400000000000000,-0.838,192.0,0.0,0.0,0.0,0.0,0.0,0.0,0.0,0.0,0.0,1.67814052309436E+09,0.0,2023-03-06 14:08:43.094
177.0,-636.3765163870470,-2971.753832310900,10645.755904407000,-13534.696523511000,20927.580705592700,0.0,0.0,0.0,0.404,-0.47400000000000000,-0.838,192.0,0.0,0.0,0.0,0.0,0.0,0.0,0.0,0.0,0.0,1.67814052309842E+09,0.0,2023-03-06 14:08:43.098
178.0,-622.1831586579270,-2968.5798845982400,10684.893808948300,-13536.574070045200,20941.662304599600,0.0,0.0,0.0,0.404,-0.47400000000000000,-0.838,192.0,0.0,0.0,0.0,0.0,0.0,0.0,0.0,0.0,0.0,1.67814052310145E+09,0.0,2023-03-06 14:08:43.101
179.0,-620.7302952683320,-2964.668329318560,10692.024015429500,-13532.953087443500,20950.133615748100,0.0,0.0,0.0,0.404,-0.47400000000000000,-0.838,192.0,0.0,0.0,0.0,0.0,0.0,0.0,0.0,0.0,0.0,1.67814052310543E+09,0.0,2023-03-06 14:08:43.105
180.0,-630.8109320176760,-2961.8743612616500,10649.712163175600,-13531.142596142600,20932.38633065060,0.0,0.0,0.0,0.406,-0.47600000000000000,-0.838,192.0,12.0,176.0,241.0,32.0,229.0,208.0,0.0,0.0,0.0,1.67814052310945E+09,0.0,2023-03-06 14:08:43.109
181.0,-633.6943070524110,-2961.8296577727400,10641.956107849600,-13531.232003120400,20927.893630015100,0.0,0.0,0.0,0.406,-0.47600000000000000,-0.838,192.0,0.0,0.0,0.0,0.0,0.0,0.0,0.0,0.0,0.0,1.67814052311346E+09,0.0,2023-03-06 14:08:43.113
182.0,-623.9265947254410,-2965.2271229299500,10679.060003645400,-13535.367075844700,20940.879993543600,0.0,0.0,0.0,0.406,-0.47600000000000000,-0.838,192.0,0.0,0.0,0.0,0.0,0.0,0.0,0.0,0.0,0.0,1.67814052311749E+09,0.0,2023-03-06 14:08:43.117
183.0,-622.8537109915870,-2968.6469398316100,10690.481745062100,-13535.568241544800,20955.00629603940,0.0,0.0,0.0,0.406,-0.47600000000000000,-0.838,192.0,0.0,0.0,0.0,0.0,0.0,0.0,0.0,0.0,0.0,1.67814052312256E+09,0.0,2023-03-06 14:08:43.122
184.0,-636.2871094092260,-2971.9326462665400,10649.131017819800,-13534.763578744400,20941.304676688300,0.0,0.0,0.0,0.406,-0.47600000000000000,-0.838,192.0,0.0,0.0,0.0,0.0,0.0,0.0,0.0,0.0,0.0,1.67814052312652E+09,0.0,2023-03-06 14:08:43.126
185.0,-639.8410367776200,-2974.8383730457300,10628.276840243000,-13535.545889800300,20930.352321905200,0.0,0.0,0.0,0.406,-0.47600000000000000,-0.838,192.0,0.0,0.0,0.0,0.0,0.0,0.0,0.0,0.0,0.0,1.67814052312953E+09,0.0,2023-03-06 14:08:43.129
186.0,-632.5543680851900,-2977.051195746800,10662.519712748500,-13532.349590343200,20945.082121501200,0.0,0.0,0.0,0.406,-0.47600000000000000,-0.838,192.0,0.0,0.0,0.0,0.0,0.0,0.0,0.0,0.0,0.0,1.67814052313355E+09,0.0,2023-03-06 14:08:43.133
187.0,-627.5699290716560,-2974.7713178123600,10682.435117058200,-13531.500224053900,20951.117092504200,0.0,0.0,0.0,0.406,-0.47600000000000000,-0.838,192.0,0.0,0.0,0.0,0.0,0.0,0.0,0.0,0.0,0.0,1.67814052313757E+09,0.0,2023-03-06 14:08:43.137
188.0,-635.9518332423970,-2976.8947335356200,10652.10379983230,-13530.762616486900,20943.00340926690,0.0,0.0,0.0,0.406,-0.47600000000000000,-0.838,192.0,0.0,0.0,0.0,0.0,0.0,0.0,0.0,0.0,0.0,1.67814052314158E+09,0.0,2023-03-06 14:08:43.141
189.0,-642.322080412159,-2979.0628527477800,10625.48287218610,-13526.761654229400,20931.022874238800,0.0,0.0,0.0,0.406,-0.47600000000000000,-0.838,192.0,0.0,0.0,0.0,0.0,0.0,0.0,0.0,0.0,0.0,1.67814052314558E+09,0.0,2023-03-06 14:08:43.145
190.0,-633.4484378634020,-2977.341768424720,10661.357422036800,-13526.761654229400,20945.193880223500,0.0,0.0,0.0,0.40800000000000000,-0.47000000000000000,-0.842,192.0,12.0,192.0,241.0,80.0,229.0,176.0,0.0,0.0,0.0,1.67814052315065E+09,0.0,2023-03-06 14:08:43.150
191.0,-627.324059882648,-2974.5925038567200,10688.939474694700,-13533.53423279930,20962.58353740970,0.0,0.0,0.0,0.40800000000000000,-0.47000000000000000,-0.842,192.0,0.0,0.0,0.0,0.0,0.0,0.0,0.0,0.0,0.0,1.67814052315363E+09,0.0,2023-03-06 14:08:43.153
192.0,-634.0742867081510,-2972.3349776667300,10666.028936628000,-13536.417607834100,20956.1462350066,0.0,0.0,0.0,0.40800000000000000,-0.47000000000000000,-0.842,192.0,0.0,0.0,0.0,0.0,0.0,0.0,0.0,0.0,0.0,1.67814052315674E+09,0.0,2023-03-06 14:08:43.156
193.0,-648.1335339705390,-2972.402032900100,10626.443997197600,-13532.193128132000,20945.305638945800,0.0,0.0,0.0,0.40800000000000000,-0.47000000000000000,-0.842,192.0,0.0,0.0,0.0,0.0,0.0,0.0,0.0,0.0,0.0,1.67814052316168E+09,0.0,2023-03-06 14:08:43.161
194.0,-638.2764146657490,-2967.954035753490,10652.036744599000,-13530.762616486900,20956.23564198440,0.0,0.0,0.0,0.40800000000000000,-0.47000000000000000,-0.842,192.0,0.0,0.0,0.0,0.0,0.0,0.0,0.0,0.0,0.0,1.6781405231657E+09,0.0,2023-03-06 14:08:43.165
195.0,-624.6865540369220,-2964.6459775741100,10683.64211125880,-13532.170776387500,20955.274516972800,0.0,0.0,0.0,0.40800000000000000,-0.47000000000000000,-0.842,192.0,0.0,0.0,0.0,0.0,0.0,0.0,0.0,0.0,0.0,1.67814052316975E+09,0.0,2023-03-06 14:08:43.169
196.0,-624.3289261256370,-2965.4282886300400,10673.606177998300,-13535.30002061130,20941.483490643900,0.0,0.0,0.0,0.40800000000000000,-0.47000000000000000,-0.842,192.0,0.0,0.0,0.0,0.0,0.0,0.0,0.0,0.0,0.0,1.67814052317373E+09,0.0,2023-03-06 14:08:43.173
197.0,-631.1462081845060,-2965.0036054853900,10631.987229822500,-13527.58866877420,20930.57583934970,0.0,0.0,0.0,0.40800000000000000,-0.47000000000000000,-0.842,192.0,0.0,0.0,0.0,0.0,0.0,0.0,0.0,0.0,0.0,1.67814052317778E+09,0.0,2023-03-06 14:08:43.177
198.0,-625.9606034708740,-2966.210599685980,10648.125189319300,-13527.05222690730,20937.86250804220,0.0,0.0,0.0,0.40800000000000000,-0.47000000000000000,-0.842,192.0,0.0,0.0,0.0,0.0,0.0,0.0,0.0,0.0,0.0,1.67814052318177E+09,0.0,2023-03-06 14:08:43.181
199.0,-617.3775336000360,-2962.723727550950,10681.742212980100,-13526.068750151200,20952.614659382700,0.0,0.0,0.0,0.40800000000000000,-0.47000000000000000,-0.842,192.0,0.0,0.0,0.0,0.0,0.0,0.0,0.0,0.0,0.0,1.67814052318478E+09,0.0,2023-03-06 14:08:43.184
200.0,-618.7633417562650,-2962.2319891729300,10678.456506545100,-13522.805395460800,20950.2453744704,0.0,0.0,0.0,0.41400000000000000,-0.47400000000000000,-0.838,192.0,12.0,240.0,241.0,48.0,229.0,208.0,0.0,0.0,0.0,1.67814052318884E+09,0.0,2023-03-06 14:08:43.188
201.0,-630.5427110842120,-2962.701375806500,10634.356514734800,-13524.571183272700,20931.492260872400,0.0,0.0,0.0,0.41400000000000000,-0.47400000000000000,-0.838,192.0,0.0,0.0,0.0,0.0,0.0,0.0,0.0,0.0,0.0,1.6781405231938E+09,0.0,2023-03-06 14:08:43.193
202.0,-630.8109320176760,-2963.1260589511500,10638.312773503400,-13528.549793785800,20937.70604583100,0.0,0.0,0.0,0.41400000000000000,-0.47400000000000000,-0.838,192.0,0.0,0.0,0.0,0.0,0.0,0.0,0.0,0.0,0.0,1.67814052319784E+09,0.0,2023-03-06 14:08:43.197
203.0,-619.1656731564610,-2961.5837885837300,10678.322396078400,-13529.600325775200,20952.27938321580,0.0,0.0,0.0,0.41400000000000000,-0.47400000000000000,-0.838,192.0,0.0,0.0,0.0,0.0,0.0,0.0,0.0,0.0,0.0,1.67814052320187E+09,0.0,2023-03-06 14:08:43.201
204.0,-616.6175742885560,-2961.024994972350,10686.570189782400,-13525.353494328700,20958.515519918900,0.0,0.0,0.0,0.41400000000000000,-0.47400000000000000,-0.838,192.0,0.0,0.0,0.0,0.0,0.0,0.0,0.0,0.0,0.0,1.67814052320591E+09,0.0,2023-03-06 14:08:43.205
205.0,-632.1967401739050,-2962.2990444063000,10643.856006128300,-13518.379750058600,20946.467929657500,0.0,0.0,0.0,0.41400000000000000,-0.47400000000000000,-0.838,192.0,0.0,0.0,0.0,0.0,0.0,0.0,0.0,0.0,0.0,1.67814052320891E+09,0.0,2023-03-06 14:08:43.208
206.0,-632.1520366849940,-2960.8461810167100,10636.256413013500,-13512.612999989200,20953.620487883200,0.0,0.0,0.0,0.41400000000000000,-0.47400000000000000,-0.838,192.0,0.0,0.0,0.0,0.0,0.0,0.0,0.0,0.0,0.0,1.6781405232129E+09,0.0,2023-03-06 14:08:43.212
207.0,-619.5903563011120,-2958.6110065711700,10674.58965475440,-13513.685883723000,20971.747752636400,0.0,0.0,0.0,0.41400000000000000,-0.47400000000000000,-0.838,192.0,0.0,0.0,0.0,0.0,0.0,0.0,0.0,0.0,0.0,1.67814052321693E+09,0.0,2023-03-06 14:08:43.216
208.0,-616.6175742885560,-2959.6838903050300,10691.755794496000,-13516.636313991100,20977.738020150400,0.0,0.0,0.0,0.41400000000000000,-0.47400000000000000,-0.838,192.0,0.0,0.0,0.0,0.0,0.0,0.0,0.0,0.0,0.0,1.67814052322193E+09,0.0,2023-03-06 14:08:43.221
209.0,-627.8828534940310,-2964.3554048961900,10658.384640024300,-13515.362264557200,20956.61562164020,0.0,0.0,0.0,0.41400000000000000,-0.47400000000000000,-0.838,192.0,0.0,0.0,0.0,0.0,0.0,0.0,0.0,0.0,0.0,1.67814052322602E+09,0.0,2023-03-06 14:08:43.226
210.0,-625.871196493053,-2966.3670618971700,10639.452712470600,-13507.427395275500,20947.697275602500,0.0,0.0,0.0,0.42,-0.47400000000000000,-0.84,192.0,13.0,32.0,241.0,48.0,229.0,192.0,0.0,0.0,0.0,1.67814052322999E+09,0.0,2023-03-06 14:08:43.229
211.0,-613.2648126202600,-2965.048308974300,10675.103744876800,-13515.876354679600,20952.48054891590,0.0,0.0,0.0,0.42,-0.47400000000000000,-0.84,192.0,0.0,0.0,0.0,0.0,0.0,0.0,0.0,0.0,0.0,1.67814052323403E+09,0.0,2023-03-06 14:08:43.234
212.0,-614.069475420651,-2964.690681063020,10694.370948597300,-13527.163985629600,20952.391141938100,0.0,0.0,0.0,0.42,-0.47400000000000000,-0.84,192.0,0.0,0.0,0.0,0.0,0.0,0.0,0.0,0.0,0.0,1.67814052323704E+09,0.0,2023-03-06 14:08:43.237
213.0,-627.100542438095,-2966.568227597260,10662.25149181500,-13531.455520565000,20944.344513934200,0.0,0.0,0.0,0.42,-0.47400000000000000,-0.84,192.0,0.0,0.0,0.0,0.0,0.0,0.0,0.0,0.0,0.0,1.67814052324105E+09,0.0,2023-03-06 14:08:43.241
214.0,-639.4610571218800,-2970.4574311324900,10628.500357687500,-13531.120244398100,20931.51461261690,0.0,0.0,0.0,0.42,-0.47400000000000000,-0.84,192.0,0.0,0.0,0.0,0.0,0.0,0.0,0.0,0.0,0.0,1.67814052324505E+09,0.0,2023-03-06 14:08:43.245
215.0,-630.4309523619360,-2968.7363468094300,10659.882206902800,-13527.633372263100,20947.786682580300,0.0,0.0,0.0,0.42,-0.47400000000000000,-0.84,192.0,0.0,0.0,0.0,0.0,0.0,0.0,0.0,0.0,0.0,1.6781405232491E+09,0.0,2023-03-06 14:08:43.249
216.0,-615.9246702104410,-2965.4729921189500,10685.094974648400,-13527.387503074100,20966.137464778100,0.0,0.0,0.0,0.42,-0.47400000000000000,-0.84,192.0,0.0,0.0,0.0,0.0,0.0,0.0,0.0,0.0,0.0,1.67814052325409E+09,0.0,2023-03-06 14:08:43.254
217.0,-625.714734281866,-2968.535181109330,10661.268015059000,-13528.125110641100,20957.777912351800,0.0,0.0,0.0,0.42,-0.47400000000000000,-0.84,192.0,0.0,0.0,0.0,0.0,0.0,0.0,0.0,0.0,0.0,1.6781405232581E+09,0.0,2023-03-06 14:08:43.258
218.0,-635.5271500977460,-2967.8422770312200,10620.498433172500,-13525.219383861900,20943.00340926690,0.0,0.0,0.0,0.42,-0.47400000000000000,-0.84,192.0,0.0,0.0,0.0,0.0,0.0,0.0,0.0,0.0,0.0,1.67814052326221E+09,0.0,2023-03-06 14:08:43.262
219.0,-629.358068628081,-2967.149372953100,10645.219462540100,-13528.974476930400,20948.81486282530,0.0,0.0,0.0,0.42,-0.47400000000000000,-0.84,192.0,0.0,0.0,0.0,0.0,0.0,0.0,0.0,0.0,0.0,1.67814052326518E+09,0.0,2023-03-06 14:08:43.265
220.0,-621.8925859800080,-2966.0094339858800,10678.59061701190,-13528.706255997000,20959.968383308500,0.0,0.0,0.0,0.41600000000000000,-0.47200000000000000,-0.84,192.0,13.0,0.0,241.0,64.0,229.0,192.0,0.0,0.0,0.0,1.67814052326921E+09,0.0,2023-03-06 14:08:43.269
221.0,-629.8051035171870,-2969.116326465170,10670.25341633000,-13529.600325775200,20956.43680768450,0.0,0.0,0.0,0.41600000000000000,-0.47200000000000000,-0.84,192.0,0.0,0.0,0.0,0.0,0.0,0.0,0.0,0.0,0.0,1.67814052327324E+09,0.0,2023-03-06 14:08:43.273
222.0,-639.7739815442540,-2971.083279977240,10629.729703632600,-13535.76940724490,20928.765348048800,0.0,0.0,0.0,0.41600000000000000,-0.47200000000000000,-0.84,192.0,0.0,0.0,0.0,0.0,0.0,0.0,0.0,0.0,0.0,1.6781405232772E+09,0.0,2023-03-06 14:08:43.277
223.0,-629.4027721169920,-2970.859762532680,10647.812264896900,-13536.037628178300,20929.122975960100,0.0,0.0,0.0,0.41600000000000000,-0.47200000000000000,-0.84,192.0,0.0,0.0,0.0,0.0,0.0,0.0,0.0,0.0,0.0,1.67814052328123E+09,0.0,2023-03-06 14:08:43.281
224.0,-617.6681062779550,-2967.6858148200300,10686.994872927100,-13533.266011865900,20944.65743835660,0.0,0.0,0.0,0.41600000000000000,-0.47200000000000000,-0.84,192.0,0.0,0.0,0.0,0.0,0.0,0.0,0.0,0.0,0.0,1.67814052328622E+09,0.0,2023-03-06 14:08:43.286
225.0,-619.0539144341840,-2966.903503764090,10687.665425260700,-13538.25045087940,20947.2949442023,0.0,0.0,0.0,0.41600000000000000,-0.47200000000000000,-0.84,192.0,0.0,0.0,0.0,0.0,0.0,0.0,0.0,0.0,0.0,1.67814052329028E+09,0.0,2023-03-06 14:08:43.290
226.0,-631.3473738846030,-2968.021090986860,10641.509072960500,-13540.038590435800,20933.548621362300,0.0,0.0,0.0,0.41600000000000000,-0.47200000000000000,-0.84,192.0,0.0,0.0,0.0,0.0,0.0,0.0,0.0,0.0,0.0,1.6781405232933E+09,0.0,2023-03-06 14:08:43.293
227.0,-632.2637954072710,-2967.7528700534000,10643.587785194800,-13541.91613697010,20941.639952855100,0.0,0.0,0.0,0.41600000000000000,-0.47200000000000000,-0.84,192.0,0.0,0.0,0.0,0.0,0.0,0.0,0.0,0.0,0.0,1.67814052329727E+09,0.0,2023-03-06 14:08:43.297
228.0,-618.0704376781510,-2966.7246898084500,10684.469125803600,-13538.25045087940,20952.65936287160,0.0,0.0,0.0,0.41600000000000000,-0.47200000000000000,-0.84,192.0,0.0,0.0,0.0,0.0,0.0,0.0,0.0,0.0,0.0,1.67814052330128E+09,0.0,2023-03-06 14:08:43.301
229.0,-612.3483910975920,-2966.210599685980,10694.21448638610,-13530.092064153200,20958.49316817440,0.0,0.0,0.0,0.41600000000000000,-0.47200000000000000,-0.84,192.0,0.0,0.0,0.0,0.0,0.0,0.0,0.0,0.0,0.0,1.67814052330531E+09,0.0,2023-03-06 14:08:43.305
230.0,-620.3056121236820,-2965.4953438634100,10651.410895754200,-13532.953087443500,20946.065598257300,0.0,0.0,0.0,0.41200000000000000,-0.47600000000000000,-0.842,192.0,12.0,224.0,241.0,32.0,229.0,176.0,0.0,0.0,0.0,1.67814052330934E+09,0.0,2023-03-06 14:08:43.309
231.0,-619.3444871121030,-2963.2601694178800,10639.542119448400,-13538.272802623800,20942.712836589000,0.0,0.0,0.0,0.41200000000000000,-0.47600000000000000,-0.842,192.0,0.0,0.0,0.0,0.0,0.0,0.0,0.0,0.0,0.0,1.67814052331433E+09,0.0,2023-03-06 14:08:43.314
232.0,-609.777940485232,-2958.6557100600900,10677.115401877800,-13532.528404298800,20958.91785131910,0.0,0.0,0.0,0.41200000000000000,-0.47600000000000000,-0.842,192.0,0.0,0.0,0.0,0.0,0.0,0.0,0.0,0.0,0.0,1.67814052331837E+09,0.0,2023-03-06 14:08:43.318
233.0,-606.7157514948550,-2955.571169325250,10693.633341030300,-13528.125110641100,20962.38237170960,0.0,0.0,0.0,0.41200000000000000,-0.47600000000000000,-0.842,192.0,0.0,0.0,0.0,0.0,0.0,0.0,0.0,0.0,0.0,1.67814052332137E+09,0.0,2023-03-06 14:08:43.321
234.0,-618.0704376781510,-2953.5818640687300,10657.356459779300,-13527.208689118500,20949.261897714400,0.0,0.0,0.0,0.41200000000000000,-0.47600000000000000,-0.842,192.0,0.0,0.0,0.0,0.0,0.0,0.0,0.0,0.0,0.0,1.67814052332538E+09,0.0,2023-03-06 14:08:43.325
235.0,-627.8828534940310,-2958.2757304043500,10631.361380977800,-13526.180508873500,20944.948011034500,0.0,0.0,0.0,0.41200000000000000,-0.47600000000000000,-0.842,192.0,0.0,0.0,0.0,0.0,0.0,0.0,0.0,0.0,0.0,1.6781405233294E+09,0.0,2023-03-06 14:08:43.329
236.0,-616.5058155662790,-2960.2203321719600,10665.425439527700,-13532.30488685430,20962.15885426510,0.0,0.0,0.0,0.41200000000000000,-0.47600000000000000,-0.842,192.0,0.0,0.0,0.0,0.0,0.0,0.0,0.0,0.0,0.0,1.67814052333358E+09,0.0,2023-03-06 14:08:43.333
237.0,-607.4310073174250,-2957.6722333040500,10690.63820727330,-13531.924907198500,20978.185055039500,0.0,0.0,0.0,0.41200000000000000,-0.47600000000000000,-0.842,192.0,0.0,0.0,0.0,0.0,0.0,0.0,0.0,0.0,0.0,1.67814052333744E+09,0.0,2023-03-06 14:08:43.337
238.0,-618.808045245176,-2954.833561758230,10666.16304709470,-13526.091101895700,20972.418304970100,0.0,0.0,0.0,0.41200000000000000,-0.47600000000000000,-0.842,192.0,0.0,0.0,0.0,0.0,0.0,0.0,0.0,0.0,0.0,1.67814052334147E+09,0.0,2023-03-06 14:08:43.341
239.0,-627.9946122163070,-2957.0016809703900,10634.669439157200,-13519.184412859000,20960.48247343090,0.0,0.0,0.0,0.41200000000000000,-0.47600000000000000,-0.842,192.0,0.0,0.0,0.0,0.0,0.0,0.0,0.0,0.0,0.0,1.67814052334648E+09,0.0,2023-03-06 14:08:43.346
240.0,-614.6953242654000,-2956.2864251478200,10669.001718640500,-13520.458462293000,20972.06067705880,0.0,0.0,0.0,0.41400000000000000,-0.47600000000000000,-0.844,192.0,12.0,240.0,241.0,32.0,229.0,160.0,0.0,0.0,0.0,1.67814052334959E+09,0.0,2023-03-06 14:08:43.349
241.0,-603.7206177378440,-2953.4030501130900,10701.702320778600,-13525.979343173400,20987.908063877600,0.0,0.0,0.0,0.41400000000000000,-0.47600000000000000,-0.844,192.0,0.0,0.0,0.0,0.0,0.0,0.0,0.0,0.0,0.0,1.67814052335352E+09,0.0,2023-03-06 14:08:43.353
242.0,-611.230803874827,-2956.3311286367300,10684.647939759200,-13530.449692064500,20979.369697495700,0.0,0.0,0.0,0.41400000000000000,-0.47600000000000000,-0.844,192.0,0.0,0.0,0.0,0.0,0.0,0.0,0.0,0.0,0.0,1.67814052335756E+09,0.0,2023-03-06 14:08:43.357
243.0,-625.6923825374110,-2957.8733990041500,10644.750075906500,-13526.135805384600,20960.817749597800,0.0,0.0,0.0,0.41400000000000000,-0.47600000000000000,-0.844,192.0,0.0,0.0,0.0,0.0,0.0,0.0,0.0,0.0,0.0,1.67814052336158E+09,0.0,2023-03-06 14:08:43.361
244.0,-623.8595394920750,-2958.0298612153400,10664.978404638600,-13526.046398406800,20972.39595322560,0.0,0.0,0.0,0.41400000000000000,-0.47600000000000000,-0.844,192.0,0.0,0.0,0.0,0.0,0.0,0.0,0.0,0.0,0.0,1.67814052336558E+09,0.0,2023-03-06 14:08:43.365
245.0,-620.6185365460560,-2959.750945538400,10693.946265452700,-13533.087197910200,20978.56503469530,0.0,0.0,0.0,0.41400000000000000,-0.47600000000000000,-0.844,192.0,0.0,0.0,0.0,0.0,0.0,0.0,0.0,0.0,0.0,1.67814052336961E+09,0.0,2023-03-06 14:08:43.369
246.0,-624.1054086810840,-2963.7072043069800,10681.652806002200,-13533.82480547720,20967.612679912200,0.0,0.0,0.0,0.41400000000000000,-0.47600000000000000,-0.844,192.0,0.0,0.0,0.0,0.0,0.0,0.0,0.0,0.0,0.0,1.6781405233747E+09,0.0,2023-03-06 14:08:43.374
247.0,-631.034449462229,-2963.3942798846100,10635.608212424300,-13530.650857764600,20947.71962734700,0.0,0.0,0.0,0.41400000000000000,-0.47600000000000000,-0.844,192.0,0.0,0.0,0.0,0.0,0.0,0.0,0.0,0.0,0.0,1.67814052337765E+09,0.0,2023-03-06 14:08:43.377
248.0,-628.6651645499660,-2962.1872856840200,10647.901671874700,-13531.455520565000,20955.833310584200,0.0,0.0,0.0,0.41400000000000000,-0.47600000000000000,-0.844,192.0,0.0,0.0,0.0,0.0,0.0,0.0,0.0,0.0,0.0,1.67814052338064E+09,0.0,2023-03-06 14:08:43.380
249.0,-618.1151411670620,-2957.7169367929600,10688.246570616600,-13527.320447840700,20978.00624108390,0.0,0.0,0.0,0.41400000000000000,-0.47600000000000000,-0.844,192.0,0.0,0.0,0.0,0.0,0.0,0.0,0.0,0.0,0.0,1.67814052338568E+09,0.0,2023-03-06 14:08:43.385
250.0,-609.0179811737520,-2952.82190475725,10693.610989285800,-13533.891860710600,20979.39204924010,0.0,0.0,0.0,0.41400000000000000,-0.47600000000000000,-0.844,192.0,0.0,0.0,0.0,0.0,0.0,0.0,0.0,0.0,0.0,1.67814052338968E+09,0.0,2023-03-06 14:08:43.389
251.0,-618.7856935007210,-2954.766506524860,10652.237910299100,-13530.561450786800,20959.946031564000,0.0,0.0,0.0,0.41600000000000000,-0.47200000000000000,-0.834,192.0,13.0,0.0,241.0,64.0,229.0,240.0,0.0,0.0,0.0,1.67814052339374E+09,0.0,2023-03-06 14:08:43.393
252.0,-621.713772024366,-2954.9453204805000,10653.422552755200,-13522.403064060600,20957.80026409630,0.0,0.0,0.0,0.41600000000000000,-0.47200000000000000,-0.834,192.0,0.0,0.0,0.0,0.0,0.0,0.0,0.0,0.0,0.0,1.67814052339772E+09,0.0,2023-03-06 14:08:43.397
253.0,-608.8391672181090,-2952.307814634780,10692.314588107400,-13523.833575705700,20970.451351458000,0.0,0.0,0.0,0.41600000000000000,-0.47200000000000000,-0.834,192.0,0.0,0.0,0.0,0.0,0.0,0.0,0.0,0.0,0.0,1.67814052340075E+09,0.0,2023-03-06 14:08:43.400
254.0,-607.3863038285140,-2955.3700036251600,10700.674140533700,-13522.604229760700,20974.027630570800,0.0,0.0,0.0,0.41600000000000000,-0.47200000000000000,-0.834,192.0,0.0,0.0,0.0,0.0,0.0,0.0,0.0,0.0,0.0,1.67814052340475E+09,0.0,2023-03-06 14:08:43.404
255.0,-620.6185365460560,-2957.20284667049,10660.284538303000,-13521.307828582300,20955.609793139700,0.0,0.0,0.0,0.41600000000000000,-0.47200000000000000,-0.834,192.0,0.0,0.0,0.0,0.0,0.0,0.0,0.0,0.0,0.0,1.67814052340881E+09,0.0,2023-03-06 14:08:43.408
0.0,-626.5417488267120,-2959.8403525162200,10647.991078852500,-13512.925924411500,20956.414455940100,0.0,0.0,0.0,0.41600000000000000,-0.47200000000000000,-0.834,192.0,0.0,0.0,0.0,0.0,0.0,0.0,0.0,0.0,0.0,1.67814052341281E+09,0.0,2023-03-06 14:08:43.412
1.0,-613.9353649539190,-2957.471067603950,10685.87728570430,-13513.954104656500,20976.73219164990,0.0,0.0,0.0,0.41600000000000000,-0.47200000000000000,-0.834,192.0,0.0,0.0,0.0,0.0,0.0,0.0,0.0,0.0,0.0,1.67814052341784E+09,0.0,2023-03-06 14:08:43.417
2.0,-607.8780422065310,-2955.1688379250600,10703.06577719040,-13518.044473891800,20983.616528942200,0.0,0.0,0.0,0.41600000000000000,-0.47200000000000000,-0.834,192.0,0.0,0.0,0.0,0.0,0.0,0.0,0.0,0.0,0.0,1.67814052342181E+09,0.0,2023-03-06 14:08:43.421
3.0,-621.423199346447,-2958.3874891266200,10666.654785472700,-13521.82191870470,20964.170511266100,0.0,0.0,0.0,0.41600000000000000,-0.47200000000000000,-0.834,192.0,0.0,0.0,0.0,0.0,0.0,0.0,0.0,0.0,0.0,1.67814052342586E+09,0.0,2023-03-06 14:08:43.425
4.0,-629.291013394715,-2960.8908845056200,10640.838520626800,-13528.996828674900,20950.20067098150,0.0,0.0,0.0,0.41600000000000000,-0.47200000000000000,-0.834,192.0,0.0,0.0,0.0,0.0,0.0,0.0,0.0,0.0,0.0,1.67814052342986E+09,0.0,2023-03-06 14:08:43.429
5.0,-622.6525452914890,-2959.8403525162200,10673.427364042700,-13526.918116440500,20966.2492235004,0.0,0.0,0.0,0.41200000000000000,-0.47200000000000000,-0.8300000000000000,192.0,12.0,224.0,241.0,64.0,230.0,16.0,0.0,0.0,0.0,1.67814052343288E+09,0.0,2023-03-06 14:08:43.432
6.0,-616.1928911439050,-2955.6382245586200,10696.047329431500,-13519.385578559100,20978.43092422850,0.0,0.0,0.0,0.41200000000000000,-0.47200000000000000,-0.8300000000000000,192.0,0.0,0.0,0.0,0.0,0.0,0.0,0.0,0.0,0.0,1.67814052343697E+09,0.0,2023-03-06 14:08:43.436
7.0,-624.485388336824,-2955.817038514260,10671.125134363800,-13519.653799492600,20965.91394733360,0.0,0.0,0.0,0.41200000000000000,-0.47200000000000000,-0.8300000000000000,192.0,0.0,0.0,0.0,0.0,0.0,0.0,0.0,0.0,0.0,1.67814052344089E+09,0.0,2023-03-06 14:08:43.440
8.0,-635.7059640533880,-2962.120230450660,10635.988192080000,-13522.023084404800,20955.542737906300,0.0,0.0,0.0,0.41200000000000000,-0.47200000000000000,-0.8300000000000000,192.0,0.0,0.0,0.0,0.0,0.0,0.0,0.0,0.0,0.0,1.67814052344592E+09,0.0,2023-03-06 14:08:43.445
9.0,-626.7205627823550,-2961.024994972350,10666.118343605800,-13524.012389661400,20976.57572943880,0.0,0.0,0.0,0.41200000000000000,-0.47200000000000000,-0.8300000000000000,192.0,0.0,0.0,0.0,0.0,0.0,0.0,0.0,0.0,0.0,1.67814052344994E+09,0.0,2023-03-06 14:08:43.449
10.0,-616.55051905519,-2958.856875760180,10694.505059064000,-13525.10762513970,20984.510598720400,0.0,0.0,0.0,0.41200000000000000,-0.47200000000000000,-0.8300000000000000,192.0,0.0,0.0,0.0,0.0,0.0,0.0,0.0,0.0,0.0,1.67814052345397E+09,0.0,2023-03-06 14:08:43.453
11.0,-619.7468185122990,-2961.6508438171000,10674.634358243300,-13525.755825728900,20976.419267227600,0.0,0.0,0.0,0.41200000000000000,-0.47200000000000000,-0.8300000000000000,192.0,0.0,0.0,0.0,0.0,0.0,0.0,0.0,0.0,0.0,1.67814052345699E+09,0.0,2023-03-06 14:08:43.456
12.0,-631.3473738846030,-2964.5565705962900,10634.043590312400,-13519.25146809240,20963.611717654700,0.0,0.0,0.0,0.41200000000000000,-0.47200000000000000,-0.8300000000000000,192.0,0.0,0.0,0.0,0.0,0.0,0.0,0.0,0.0,0.0,1.67814052346097E+09,0.0,2023-03-06 14:08:43.460
13.0,-626.9217284824530,-2962.6790240620400,10656.864721401300,-13519.76555821490,20973.42413347060,0.0,0.0,0.0,0.41200000000000000,-0.47200000000000000,-0.8300000000000000,192.0,0.0,0.0,0.0,0.0,0.0,0.0,0.0,0.0,0.0,1.67814052346498E+09,0.0,2023-03-06 14:08:43.464
14.0,-612.3260393531370,-2957.6275298151400,10690.191172384200,-13517.306866324800,20983.594177197700,0.0,0.0,0.0,0.41200000000000000,-0.47200000000000000,-0.8300000000000000,192.0,0.0,0.0,0.0,0.0,0.0,0.0,0.0,0.0,0.0,1.67814052346902E+09,0.0,2023-03-06 14:08:43.469
15.0,-612.5719085421450,-2959.750945538400,10682.971558925100,-13513.797642445300,20983.14714230860,0.0,0.0,0.0,0.41200000000000000,-0.47000000000000000,-0.8280000000000000,192.0,12.0,224.0,241.0,80.0,230.0,32.0,0.0,0.0,0.0,1.67814052347304E+09,0.0,2023-03-06 14:08:43.473
16.0,-627.905205238486,-2964.1989426850000,10637.597517680800,-13512.165965100000,20962.605889154200,0.0,0.0,0.0,0.41200000000000000,-0.47000000000000000,-0.8280000000000000,192.0,0.0,0.0,0.0,0.0,0.0,0.0,0.0,0.0,0.0,1.67814052347805E+09,0.0,2023-03-06 14:08:43.478
17.0,-623.9489464698970,-2965.0036054853900,10647.722857919100,-13515.585782001700,20964.461083944000,0.0,0.0,0.0,0.41200000000000000,-0.47000000000000000,-0.8280000000000000,192.0,0.0,0.0,0.0,0.0,0.0,0.0,0.0,0.0,0.0,1.67814052348212E+09,0.0,2023-03-06 14:08:43.482
18.0,-612.4377980754140,-2965.025957229850,10685.094974648400,-13522.447767549500,20979.101476562200,0.0,0.0,0.0,0.41200000000000000,-0.47000000000000000,-0.8280000000000000,192.0,0.0,0.0,0.0,0.0,0.0,0.0,0.0,0.0,0.0,1.67814052348509E+09,0.0,2023-03-06 14:08:43.485
19.0,-613.0636469201620,-2966.3223584082600,10688.15716363870,-13526.940468185000,20985.225854543000,0.0,0.0,0.0,0.41200000000000000,-0.47000000000000000,-0.8280000000000000,192.0,0.0,0.0,0.0,0.0,0.0,0.0,0.0,0.0,0.0,1.67814052348919E+09,0.0,2023-03-06 14:08:43.489
20.0,-624.1054086810840,-2964.7353845519300,10645.867663129300,-13524.571183272700,20967.52327293440,0.0,0.0,0.0,0.41200000000000000,-0.47000000000000000,-0.8280000000000000,192.0,0.0,0.0,0.0,0.0,0.0,0.0,0.0,0.0,0.0,1.67814052349314E+09,0.0,2023-03-06 14:08:43.493
21.0,-624.3959813590030,-2966.054137474790,10647.834616641400,-13525.398197817600,20959.029610041300,0.0,0.0,0.0,0.41200000000000000,-0.47000000000000000,-0.8280000000000000,192.0,0.0,0.0,0.0,0.0,0.0,0.0,0.0,0.0,0.0,1.67814052349717E+09,0.0,2023-03-06 14:08:43.497
22.0,-619.389190601014,-2966.0094339858800,10689.40886132820,-13526.113453640200,20971.524235191900,0.0,0.0,0.0,0.41200000000000000,-0.47000000000000000,-0.8280000000000000,192.0,0.0,0.0,0.0,0.0,0.0,0.0,0.0,0.0,0.0,1.67814052350118E+09,0.0,2023-03-06 14:08:43.501
23.0,-616.8634434775640,-2962.924893251050,10699.489498077600,-13529.443863564,20974.027630570800,0.0,0.0,0.0,0.41200000000000000,-0.47000000000000000,-0.8280000000000000,192.0,0.0,0.0,0.0,0.0,0.0,0.0,0.0,0.0,0.0,1.6781405235052E+09,0.0,2023-03-06 14:08:43.505
24.0,-623.4572080918800,-2963.8636665181700,10656.976480123600,-13528.415683319100,20949.95480179250,0.0,0.0,0.0,0.41200000000000000,-0.47000000000000000,-0.8280000000000000,192.0,0.0,0.0,0.0,0.0,0.0,0.0,0.0,0.0,0.0,1.67814052351025E+09,0.0,2023-03-06 14:08:43.510
25.0,-626.1617691709720,-2965.2271229299500,10640.860872371300,-13525.085273395200,20951.67588611550,0.0,0.0,0.0,0.41200000000000000,-0.47400000000000000,-0.834,192.0,12.0,224.0,241.0,48.0,229.0,240.0,0.0,0.0,0.0,1.67814052351324E+09,0.0,2023-03-06 14:08:43.513
26.0,-616.9975539442960,-2961.4943816059100,10679.417631556700,-13525.621715262100,20972.06067705880,0.0,0.0,0.0,0.41200000000000000,-0.47400000000000000,-0.834,192.0,0.0,0.0,0.0,0.0,0.0,0.0,0.0,0.0,0.0,1.67814052351623E+09,0.0,2023-03-06 14:08:43.516
27.0,-610.7837689857210,-2962.1649339395700,10697.231971887600,-13528.795662974800,20973.06650555930,0.0,0.0,0.0,0.41200000000000000,-0.47400000000000000,-0.834,192.0,0.0,0.0,0.0,0.0,0.0,0.0,0.0,0.0,0.0,1.67814052352125E+09,0.0,2023-03-06 14:08:43.521
28.0,-625.6029755595890,-2964.5118671073800,10662.497361004000,-13524.3923693171,20958.537871663300,0.0,0.0,0.0,0.41200000000000000,-0.47400000000000000,-0.834,192.0,0.0,0.0,0.0,0.0,0.0,0.0,0.0,0.0,0.0,1.67814052352529E+09,0.0,2023-03-06 14:08:43.525
29.0,-633.6496035635000,-2963.371928140160,10635.831729868900,-13524.012389661400,20947.250240713400,0.0,0.0,0.0,0.41200000000000000,-0.47400000000000000,-0.834,192.0,0.0,0.0,0.0,0.0,0.0,0.0,0.0,0.0,0.0,1.67814052352934E+09,0.0,2023-03-06 14:08:43.529
30.0,-617.4445888334020,-2962.857838017680,10671.974500653100,-13523.185375116500,20960.415418197600,0.0,0.0,0.0,0.41200000000000000,-0.47400000000000000,-0.834,192.0,0.0,0.0,0.0,0.0,0.0,0.0,0.0,0.0,0.0,1.67814052353331E+09,0.0,2023-03-06 14:08:43.533
31.0,-606.3134200946590,-2961.5390850948200,10699.087166677400,-13525.10762513970,20974.72053464900,0.0,0.0,0.0,0.41200000000000000,-0.47400000000000000,-0.834,192.0,0.0,0.0,0.0,0.0,0.0,0.0,0.0,0.0,0.0,1.67814052353739E+09,0.0,2023-03-06 14:08:43.537
32.0,-614.583565543123,-2957.5157710928600,10677.629492000300,-13522.894802438600,20972.1500840366,0.0,0.0,0.0,0.41200000000000000,-0.47400000000000000,-0.834,192.0,0.0,0.0,0.0,0.0,0.0,0.0,0.0,0.0,0.0,1.67814052354135E+09,0.0,2023-03-06 14:08:43.541
33.0,-623.5689668141560,-2957.15814318158,10644.213634039600,-13520.883145437600,20962.315316476300,0.0,0.0,0.0,0.41200000000000000,-0.47400000000000000,-0.834,192.0,0.0,0.0,0.0,0.0,0.0,0.0,0.0,0.0,0.0,1.67814052354436E+09,0.0,2023-03-06 14:08:43.544
34.0,-614.3600480985700,-2955.794686769810,10671.482762275100,-13517.373921558100,20980.599043440700,0.0,0.0,0.0,0.41200000000000000,-0.47400000000000000,-0.834,192.0,0.0,0.0,0.0,0.0,0.0,0.0,0.0,0.0,0.0,1.67814052354939E+09,0.0,2023-03-06 14:08:43.549
35.0,-605.9557921833750,-2953.3583466241800,10699.869477733300,-13513.887049423100,20991.037308101300,0.0,0.0,0.0,0.41200000000000000,-0.47400000000000000,-0.834,192.0,12.0,224.0,241.0,48.0,229.0,240.0,0.0,0.0,0.0,1.67814052355339E+09,0.0,2023-03-06 14:08:43.553
36.0,-611.230803874827,-2953.827733257740,10684.35736708130,-13517.39627330260,20983.191845797500,0.0,0.0,0.0,0.41200000000000000,-0.47400000000000000,-0.834,192.0,0.0,0.0,0.0,0.0,0.0,0.0,0.0,0.0,0.0,1.67814052355742E+09,0.0,2023-03-06 14:08:43.557
37.0,-622.7643040137650,-2954.922968736050,10643.453674728100,-13517.932715169500,20967.366810723200,0.0,0.0,0.0,0.41200000000000000,-0.47400000000000000,-0.834,192.0,0.0,0.0,0.0,0.0,0.0,0.0,0.0,0.0,0.0,1.67814052356142E+09,0.0,2023-03-06 14:08:43.561
38.0,-612.0131149307630,-2956.599349570200,10664.419611027200,-13521.888973938100,20971.881863103100,0.0,0.0,0.0,0.41200000000000000,-0.47400000000000000,-0.834,192.0,0.0,0.0,0.0,0.0,0.0,0.0,0.0,0.0,0.0,1.67814052356551E+09,0.0,2023-03-06 14:08:43.565
39.0,-605.6428677610000,-2958.119268193160,10696.717881765100,-13519.72085472590,20980.129656807100,0.0,0.0,0.0,0.41200000000000000,-0.47400000000000000,-0.834,192.0,0.0,0.0,0.0,0.0,0.0,0.0,0.0,0.0,0.0,1.67814052356948E+09,0.0,2023-03-06 14:08:43.569
40.0,-615.0529521766850,-2960.1309251941400,10688.581846783400,-13520.413758804100,20973.848816615200,0.0,0.0,0.0,0.41200000000000000,-0.47400000000000000,-0.834,192.0,0.0,0.0,0.0,0.0,0.0,0.0,0.0,0.0,0.0,1.6781405235725E+09,0.0,2023-03-06 14:08:43.572
41.0,-625.7594377707770,-2963.304872906790,10642.581956694400,-13525.286439095300,20953.374618694100,0.0,0.0,0.0,0.41200000000000000,-0.47400000000000000,-0.834,192.0,0.0,0.0,0.0,0.0,0.0,0.0,0.0,0.0,0.0,1.67814052357754E+09,0.0,2023-03-06 14:08:43.577
42.0,-623.1889871584160,-2964.7130328074700,10651.902634132200,-13523.297133838800,20961.15302576460,0.0,0.0,0.0,0.41200000000000000,-0.47400000000000000,-0.834,192.0,0.0,0.0,0.0,0.0,0.0,0.0,0.0,0.0,0.0,1.67814052358153E+09,0.0,2023-03-06 14:08:43.581
43.0,-613.7789027427320,-2960.756774038880,10694.25918987500,-13524.459424550500,20976.642784672100,0.0,0.0,0.0,0.41200000000000000,-0.47400000000000000,-0.834,192.0,0.0,0.0,0.0,0.0,0.0,0.0,0.0,0.0,0.0,1.67814052358559E+09,0.0,2023-03-06 14:08:43.585
44.0,-614.0247719317400,-2961.7402507949200,10698.751890510500,-13525.53230828430,20977.425095728100,0.0,0.0,0.0,0.41200000000000000,-0.47400000000000000,-0.834,192.0,0.0,0.0,0.0,0.0,0.0,0.0,0.0,0.0,0.0,1.67814052358955E+09,0.0,2023-03-06 14:08:43.589
45.0,-620.3503156125920,-2964.2659979183700,10653.623718455300,-13520.011427403900,20955.34157220620,0.0,0.0,0.0,0.41200000000000000,-0.47800000000000000,-0.8320000000000000,192.0,12.0,224.0,241.0,16.0,230.0,0.0,0.0,0.0,0.0,1.6781405235936E+09,0.0,2023-03-06 14:08:43.593
46.0,-617.9586789558740,-2965.54004735232,10651.96968936560,-13525.554660028800,20951.22885122640,0.0,0.0,0.0,0.41200000000000000,-0.47800000000000000,-0.8320000000000000,192.0,0.0,0.0,0.0,0.0,0.0,0.0,0.0,0.0,0.0,1.67814052359663E+09,0.0,2023-03-06 14:08:43.596
47.0,-610.6943620079000,-2963.2601694178800,10691.129945651300,-13536.01527643390,20964.684601388500,0.0,0.0,0.0,0.41200000000000000,-0.47800000000000000,-0.8320000000000000,192.0,0.0,0.0,0.0,0.0,0.0,0.0,0.0,0.0,0.0,1.67814052360063E+09,0.0,2023-03-06 14:08:43.600
48.0,-612.6389637755110,-2964.020128729360,10704.563344068900,-13530.784968231300,20973.67000265960,0.0,0.0,0.0,0.41200000000000000,-0.47800000000000000,-0.8320000000000000,192.0,0.0,0.0,0.0,0.0,0.0,0.0,0.0,0.0,0.0,1.67814052360463E+09,0.0,2023-03-06 14:08:43.604
49.0,-621.2443853908050,-2965.92002700806,10666.833599428400,-13520.324351826200,20959.141368763600,0.0,0.0,0.0,0.41200000000000000,-0.47800000000000000,-0.8320000000000000,192.0,0.0,0.0,0.0,0.0,0.0,0.0,0.0,0.0,0.0,1.67814052360865E+09,0.0,2023-03-06 14:08:43.608
50.0,-626.2735278932490,-2965.6518060746000,10651.25443354300,-13519.027950647800,20950.357133192700,0.0,0.0,0.0,0.41200000000000000,-0.47800000000000000,-0.8320000000000000,192.0,0.0,0.0,0.0,0.0,0.0,0.0,0.0,0.0,0.0,1.67814052361369E+09,0.0,2023-03-06 14:08:43.613
51.0,-619.5009493232910,-2965.830620030240,10688.35832933880,-13520.257296592900,20965.981002566900,0.0,0.0,0.0,0.41200000000000000,-0.47800000000000000,-0.8320000000000000,192.0,0.0,0.0,0.0,0.0,0.0,0.0,0.0,0.0,0.0,1.67814052361773E+09,0.0,2023-03-06 14:08:43.617
52.0,-615.1423591545060,-2966.1211927081600,10707.334960381400,-13520.838441948700,20976.620432927700,0.0,0.0,0.0,0.41200000000000000,-0.47800000000000000,-0.8320000000000000,192.0,0.0,0.0,0.0,0.0,0.0,0.0,0.0,0.0,0.0,1.67814052362172E+09,0.0,2023-03-06 14:08:43.621
53.0,-621.423199346447,-2966.1658961970700,10675.126096621300,-13521.82191870470,20963.835235099200,0.0,0.0,0.0,0.41200000000000000,-0.47800000000000000,-0.8320000000000000,192.0,0.0,0.0,0.0,0.0,0.0,0.0,0.0,0.0,0.0,1.67814052362471E+09,0.0,2023-03-06 14:08:43.624
54.0,-624.8653679925640,-2963.2378176734200,10645.82295964040,-13523.431244305500,20951.541775648800,0.0,0.0,0.0,0.41200000000000000,-0.47800000000000000,-0.8320000000000000,192.0,0.0,0.0,0.0,0.0,0.0,0.0,0.0,0.0,0.0,1.67814052362872E+09,0.0,2023-03-06 14:08:43.628
55.0,-617.9363272114190,-2959.706242049490,10681.183419368700,-13519.922020426000,20965.645726400100,0.0,0.0,0.0,0.40800000000000000,-0.47800000000000000,-0.8300000000000000,192.0,12.0,192.0,241.0,16.0,230.0,16.0,0.0,0.0,0.0,1.67814052363276E+09,0.0,2023-03-06 14:08:43.632
56.0,-611.0743416636400,-2956.0182042143600,10708.005512715000,-13516.971590157900,20976.463970716500,0.0,0.0,0.0,0.40800000000000000,-0.47800000000000000,-0.8300000000000000,192.0,0.0,0.0,0.0,0.0,0.0,0.0,0.0,0.0,0.0,1.67814052363677E+09,0.0,2023-03-06 14:08:43.636
57.0,-613.7565509982770,-2954.4535821024900,10684.558532781400,-13520.123186126100,20966.070409544800,0.0,0.0,0.0,0.40800000000000000,-0.47800000000000000,-0.8300000000000000,192.0,0.0,0.0,0.0,0.0,0.0,0.0,0.0,0.0,0.0,1.67814052364083E+09,0.0,2023-03-06 14:08:43.640
58.0,-620.4620743348690,-2956.6440530591100,10646.649974185200,-13516.591610502200,20947.697275602500,0.0,0.0,0.0,0.40800000000000000,-0.47800000000000000,-0.8300000000000000,192.0,0.0,0.0,0.0,0.0,0.0,0.0,0.0,0.0,0.0,1.67814052364583E+09,0.0,2023-03-06 14:08:43.645
59.0,-618.7856935007210,-2958.476896104440,10672.935625664700,-13514.088215123200,20961.600060653700,0.0,0.0,0.0,0.40800000000000000,-0.47800000000000000,-0.8300000000000000,192.0,0.0,0.0,0.0,0.0,0.0,0.0,0.0,0.0,0.0,1.67814052364882E+09,0.0,2023-03-06 14:08:43.648
60.0,-608.1462631399950,-2955.3700036251600,10704.876268491300,-13509.841383676700,20983.14714230860,0.0,0.0,0.0,0.40800000000000000,-0.47800000000000000,-0.8300000000000000,192.0,0.0,0.0,0.0,0.0,0.0,0.0,0.0,0.0,0.0,1.67814052365289E+09,0.0,2023-03-06 14:08:43.652
61.0,-608.8391672181090,-2955.6158728141600,10690.63820727330,-13506.220401074900,20978.296813761800,0.0,0.0,0.0,0.40800000000000000,-0.47800000000000000,-0.8300000000000000,192.0,0.0,0.0,0.0,0.0,0.0,0.0,0.0,0.0,0.0,1.67814052365688E+09,0.0,2023-03-06 14:08:43.656
62.0,-620.7973505016980,-2956.4875908479200,10648.236948041600,-13510.869563921600,20949.686580859000,0.0,0.0,0.0,0.40800000000000000,-0.47800000000000000,-0.8300000000000000,192.0,0.0,0.0,0.0,0.0,0.0,0.0,0.0,0.0,0.0,1.67814052366087E+09,0.0,2023-03-06 14:08:43.660
63.0,-614.6059172875780,-2957.9181024930600,10666.855951172800,-13516.010465146400,20955.073351272700,0.0,0.0,0.0,0.40800000000000000,-0.47800000000000000,-0.8300000000000000,192.0,0.0,0.0,0.0,0.0,0.0,0.0,0.0,0.0,0.0,1.67814052366494E+09,0.0,2023-03-06 14:08:43.664
64.0,-609.3979608294920,-2956.9122739925700,10699.73536726660,-13515.026988390300,20972.507711947900,0.0,0.0,0.0,0.40800000000000000,-0.47800000000000000,-0.8300000000000000,192.0,0.0,0.0,0.0,0.0,0.0,0.0,0.0,0.0,0.0,1.67814052366893E+09,0.0,2023-03-06 14:08:43.668
65.0,-611.230803874827,-2958.119268193160,10692.135774151800,-13515.67518897950,20968.797322368300,0.0,0.0,0.0,0.40800000000000000,-0.47800000000000000,-0.8300000000000000,192.0,12.0,192.0,241.0,16.0,230.0,16.0,0.0,0.0,0.0,1.67814052367396E+09,0.0,2023-03-06 14:08:43.673
66.0,-622.9654697138630,-2956.889922248120,10645.53238696250,-13511.227191832900,20957.308525718300,0.0,0.0,0.0,0.40800000000000000,-0.47800000000000000,-0.8300000000000000,192.0,0.0,0.0,0.0,0.0,0.0,0.0,0.0,0.0,0.0,1.67814052367699E+09,0.0,2023-03-06 14:08:43.676
67.0,-624.418333103458,-2958.2980821488000,10651.410895754200,-13508.43322377600,20970.58546192470,0.0,0.0,0.0,0.40800000000000000,-0.47800000000000000,-0.8300000000000000,192.0,0.0,0.0,0.0,0.0,0.0,0.0,0.0,0.0,0.0,1.67814052368098E+09,0.0,2023-03-06 14:08:43.680
68.0,-611.5213765527460,-2957.6051780706900,10689.364157839300,-13513.238848833900,20990.590273212200,0.0,0.0,0.0,0.40800000000000000,-0.47800000000000000,-0.8300000000000000,192.0,0.0,0.0,0.0,0.0,0.0,0.0,0.0,0.0,0.0,1.678140523685E+09,0.0,2023-03-06 14:08:43.684
69.0,-602.8041962151760,-2957.8733990041500,10692.471050318600,-13519.474985536900,20993.96538662500,0.0,0.0,0.0,0.40800000000000000,-0.47800000000000000,-0.8300000000000000,192.0,0.0,0.0,0.0,0.0,0.0,0.0,0.0,0.0,0.0,1.67814052368901E+09,0.0,2023-03-06 14:08:43.689
70.0,-616.3717050995480,-2957.2922536483100,10649.376887008800,-13518.603267503200,20973.513540448400,0.0,0.0,0.0,0.40800000000000000,-0.47800000000000000,-0.8300000000000000,192.0,0.0,0.0,0.0,0.0,0.0,0.0,0.0,0.0,0.0,1.67814052369301E+09,0.0,2023-03-06 14:08:43.693
71.0,-620.5291295682350,-2960.2650356608700,10646.091180573800,-13515.116395368100,20965.332801977700,0.0,0.0,0.0,0.40800000000000000,-0.47800000000000000,-0.8300000000000000,192.0,0.0,0.0,0.0,0.0,0.0,0.0,0.0,0.0,0.0,1.67814052369704E+09,0.0,2023-03-06 14:08:43.697
72.0,-608.7944637291990,-2958.8792275046400,10687.799535727400,-13513.57412500070,20974.273499759900,0.0,0.0,0.0,0.40800000000000000,-0.47800000000000000,-0.8300000000000000,192.0,0.0,0.0,0.0,0.0,0.0,0.0,0.0,0.0,0.0,1.67814052370211E+09,0.0,2023-03-06 14:08:43.702
73.0,-604.905260193975,-2958.2310269154300,10699.511849822000,-13513.663531978600,20979.101476562200,0.0,0.0,0.0,0.40800000000000000,-0.47800000000000000,-0.8300000000000000,192.0,0.0,0.0,0.0,0.0,0.0,0.0,0.0,0.0,0.0,1.67814052370519E+09,0.0,2023-03-06 14:08:43.705
74.0,-614.1365306540170,-2956.6217013146500,10658.16112257970,-13516.032816890800,20961.10832227570,0.0,0.0,0.0,0.40800000000000000,-0.47800000000000000,-0.8300000000000000,192.0,0.0,0.0,0.0,0.0,0.0,0.0,0.0,0.0,0.0,1.67814052370817E+09,0.0,2023-03-06 14:08:43.708
75.0,-617.3328301111260,-2955.794686769810,10641.442017727100,-13512.992979644900,20952.05586577130,0.0,0.0,0.0,0.40800000000000000,-0.47800000000000000,-0.8300000000000000,192.0,0.0,0.0,0.0,0.0,0.0,0.0,0.0,0.0,0.0,1.67814052371318E+09,0.0,2023-03-06 14:08:43.713
76.0,-609.6214782740450,-2958.4545443599900,10681.54104728000,-13518.379750058600,20962.114150776200,0.0,0.0,0.0,0.406,-0.47600000000000000,-0.8240000000000000,192.0,12.0,176.0,241.0,32.0,230.0,64.0,0.0,0.0,0.0,1.67814052371721E+09,0.0,2023-03-06 14:08:43.717
77.0,-604.8158532161540,-2958.789820526820,10704.317474879900,-13526.001694917900,20972.977098581400,0.0,0.0,0.0,0.406,-0.47600000000000000,-0.8240000000000000,192.0,0.0,0.0,0.0,0.0,0.0,0.0,0.0,0.0,0.0,1.67814052372116E+09,0.0,2023-03-06 14:08:43.721
78.0,-612.2813358642260,-2957.53812283732,10675.483724532600,-13523.744168727900,20963.835235099200,0.0,0.0,0.0,0.406,-0.47600000000000000,-0.8240000000000000,192.0,0.0,0.0,0.0,0.0,0.0,0.0,0.0,0.0,0.0,1.67814052372523E+09,0.0,2023-03-06 14:08:43.725
79.0,-620.2162051458600,-2961.2932159058100,10647.387581752300,-13518.2903430808,20952.413493682600,0.0,0.0,0.0,0.406,-0.47600000000000000,-0.8240000000000000,192.0,0.0,0.0,0.0,0.0,0.0,0.0,0.0,0.0,0.0,1.6781405237292E+09,0.0,2023-03-06 14:08:43.729
80.0,-606.8945654504970,-2957.8957507486000,10684.960864181600,-13516.166927357500,20968.037363056800,0.0,0.0,0.0,0.406,-0.47600000000000000,-0.8240000000000000,192.0,0.0,0.0,0.0,0.0,0.0,0.0,0.0,0.0,0.0,1.67814052373323E+09,0.0,2023-03-06 14:08:43.733
81.0,-595.3163618226480,-2952.576035568240,10712.49821335060,-13506.801546430800,20980.755505651900,0.0,0.0,0.0,0.406,-0.47600000000000000,-0.8240000000000000,192.0,0.0,0.0,0.0,0.0,0.0,0.0,0.0,0.0,0.0,1.67814052373627E+09,0.0,2023-03-06 14:08:43.736
82.0,-601.4407398034030,-2951.6819657900300,10686.749003738000,-13504.901648152100,20970.406647969100,0.0,0.0,0.0,0.406,-0.47600000000000000,-0.8240000000000000,192.0,0.0,0.0,0.0,0.0,0.0,0.0,0.0,0.0,0.0,1.67814052374027E+09,0.0,2023-03-06 14:08:43.740
83.0,-609.3309055961260,-2954.207712913480,10647.275823030000,-13509.930790654500,20958.649630385600,0.0,0.0,0.0,0.406,-0.47600000000000000,-0.8240000000000000,192.0,0.0,0.0,0.0,0.0,0.0,0.0,0.0,0.0,0.0,1.67814052374529E+09,0.0,2023-03-06 14:08:43.745
84.0,-602.3124578371590,-2954.7218030359500,10672.44388728670,-13511.204840088500,20975.39108698260,0.0,0.0,0.0,0.406,-0.47600000000000000,-0.8240000000000000,192.0,0.0,0.0,0.0,0.0,0.0,0.0,0.0,0.0,0.0,1.67814052374937E+09,0.0,2023-03-06 14:08:43.749
85.0,-589.6837222199110,-2949.245625644400,10703.803384757400,-13511.227191832900,20987.081049332700,0.0,0.0,0.0,0.406,-0.47600000000000000,-0.8240000000000000,192.0,0.0,0.0,0.0,0.0,0.0,0.0,0.0,0.0,0.0,1.67814052375332E+09,0.0,2023-03-06 14:08:43.753
86.0,-595.0481408891850,-2949.3573843666800,10689.699434006100,-13511.3389505552,20979.660270173600,0.0,0.0,0.0,0.40800000000000000,-0.48,-0.8320000000000000,192.0,12.0,192.0,241.0,0.0,230.0,0.0,0.0,0.0,0.0,1.67814052375736E+09,0.0,2023-03-06 14:08:43.757
87.0,-607.3863038285140,-2952.6877942905200,10645.10770381780,-13513.10473836720,20955.0957030172,0.0,0.0,0.0,0.40800000000000000,-0.48,-0.8320000000000000,192.0,0.0,0.0,0.0,0.0,0.0,0.0,0.0,0.0,0.0,1.67814052376138E+09,0.0,2023-03-06 14:08:43.761
88.0,-603.9888386713080,-2951.503151834390,10660.083372602900,-13511.71893021090,20965.24339499990,0.0,0.0,0.0,0.40800000000000000,-0.48,-0.8320000000000000,192.0,0.0,0.0,0.0,0.0,0.0,0.0,0.0,0.0,0.0,1.6781405237644E+09,0.0,2023-03-06 14:08:43.764
89.0,-595.8081002006650,-2948.7762390108400,10694.817983486400,-13510.310770310300,20985.851703387700,0.0,0.0,0.0,0.40800000000000000,-0.48,-0.8320000000000000,192.0,0.0,0.0,0.0,0.0,0.0,0.0,0.0,0.0,0.0,1.67814052376838E+09,0.0,2023-03-06 14:08:43.768
90.0,-596.9927426567960,-2951.279634389830,10690.794669484500,-13507.852078420200,20986.946938866000,0.0,0.0,0.0,0.40800000000000000,-0.48,-0.8320000000000000,192.0,0.0,0.0,0.0,0.0,0.0,0.0,0.0,0.0,0.0,1.67814052377239E+09,0.0,2023-03-06 14:08:43.772
91.0,-611.8119492306650,-2952.151352423590,10642.20197703860,-13504.05228186280,20972.932395092500,0.0,0.0,0.0,0.40800000000000000,-0.48,-0.8320000000000000,192.0,0.0,0.0,0.0,0.0,0.0,0.0,0.0,0.0,0.0,1.67814052377745E+09,0.0,2023-03-06 14:08:43.777
92.0,-609.9567544408740,-2951.860779745670,10647.544043963400,-13504.3875580296,20971.367772980700,0.0,0.0,0.0,0.40800000000000000,-0.48,-0.8320000000000000,192.0,0.0,0.0,0.0,0.0,0.0,0.0,0.0,0.0,0.0,1.67814052378148E+09,0.0,2023-03-06 14:08:43.781
93.0,-601.1948706143940,-2950.2291024004300,10684.714994992600,-13503.694653951500,20984.555302209300,0.0,0.0,0.0,0.40800000000000000,-0.48,-0.8320000000000000,192.0,0.0,0.0,0.0,0.0,0.0,0.0,0.0,0.0,0.0,1.67814052378547E+09,0.0,2023-03-06 14:08:43.785
94.0,-600.7254839808330,-2951.592558812210,10689.006529928000,-13505.169869085500,20983.124790564200,0.0,0.0,0.0,0.40800000000000000,-0.48,-0.8320000000000000,192.0,0.0,0.0,0.0,0.0,0.0,0.0,0.0,0.0,0.0,1.67814052378862E+09,0.0,2023-03-06 14:08:43.788
95.0,-616.2152428883600,-2952.911311735070,10644.68302067320,-13509.304941809800,20958.895499574600,0.0,0.0,0.0,0.40800000000000000,-0.48,-0.8320000000000000,192.0,0.0,0.0,0.0,0.0,0.0,0.0,0.0,0.0,0.0,1.67814052379254E+09,0.0,2023-03-06 14:08:43.792
96.0,-618.3386586116150,-2952.1960559125000,10639.787988637400,-13507.472098764400,20958.06848502980,0.0,0.0,0.0,0.406,-0.47800000000000000,-0.838,192.0,12.0,176.0,241.0,16.0,229.0,208.0,0.0,0.0,0.0,1.67814052379651E+09,0.0,2023-03-06 14:08:43.796
97.0,-606.1793096279280,-2950.2961576338000,10678.165933867200,-13510.82486043270,20973.62529917070,0.0,0.0,0.0,0.406,-0.47800000000000000,-0.838,192.0,0.0,0.0,0.0,0.0,0.0,0.0,0.0,0.0,0.0,1.67814052380061E+09,0.0,2023-03-06 14:08:43.800
98.0,-602.7818444707210,-2952.285462890320,10689.40886132820,-13519.922020426000,20978.475627717500,0.0,0.0,0.0,0.406,-0.47800000000000000,-0.838,192.0,0.0,0.0,0.0,0.0,0.0,0.0,0.0,0.0,0.0,1.67814052380561E+09,0.0,2023-03-06 14:08:43.805
99.0,-608.9956294292960,-2955.5488175808000,10649.19807305310,-13511.3389505552,20958.113188518700,0.0,0.0,0.0,0.406,-0.47800000000000000,-0.838,192.0,0.0,0.0,0.0,0.0,0.0,0.0,0.0,0.0,0.0,1.67814052380962E+09,0.0,2023-03-06 14:08:43.809
100.0,-613.9130132094640,-2953.53716057982,10628.76857862100,-13509.90843891010,20947.0937785022,0.0,0.0,0.0,0.406,-0.47800000000000000,-0.838,192.0,0.0,0.0,0.0,0.0,0.0,0.0,0.0,0.0,0.0,1.67814052381361E+09,0.0,2023-03-06 14:08:43.813
101.0,-608.4144840734580,-2955.72763153644,10666.16304709470,-13521.777215215800,20959.029610041300,0.0,0.0,0.0,0.406,-0.47800000000000000,-0.838,192.0,0.0,0.0,0.0,0.0,0.0,0.0,0.0,0.0,0.0,1.67814052381664E+09,0.0,2023-03-06 14:08:43.816
102.0,-604.905260193975,-2955.504114091890,10690.101765406300,-13522.96185767200,20966.47274094500,0.0,0.0,0.0,0.406,-0.47800000000000000,-0.838,192.0,0.0,0.0,0.0,0.0,0.0,0.0,0.0,0.0,0.0,1.67814052382064E+09,0.0,2023-03-06 14:08:43.820
103.0,-611.0519899191850,-2954.833561758230,10660.463352258600,-13522.492471038400,20961.220080998000,0.0,0.0,0.0,0.406,-0.47800000000000000,-0.838,192.0,0.0,0.0,0.0,0.0,0.0,0.0,0.0,0.0,0.0,1.67814052382466E+09,0.0,2023-03-06 14:08:43.824
104.0,-616.9528504553860,-2958.767468782360,10629.372075721300,-13522.581878016200,20952.167624493600,0.0,0.0,0.0,0.406,-0.47800000000000000,-0.838,192.0,0.0,0.0,0.0,0.0,0.0,0.0,0.0,0.0,0.0,1.67814052382869E+09,0.0,2023-03-06 14:08:43.828
105.0,-609.5097195517680,-2957.783992026330,10662.095029603800,-13520.05613089280,20970.540758435800,0.0,0.0,0.0,0.406,-0.47800000000000000,-0.838,192.0,0.0,0.0,0.0,0.0,0.0,0.0,0.0,0.0,0.0,1.67814052383271E+09,0.0,2023-03-06 14:08:43.832
106.0,-605.8887369500090,-2956.889922248120,10688.470088061100,-13516.211630846500,20973.24531951490,0.0,0.0,0.0,0.406,-0.47600000000000000,-0.84,192.0,12.0,176.0,241.0,32.0,229.0,192.0,0.0,0.0,0.0,1.67814052383775E+09,0.0,2023-03-06 14:08:43.837
107.0,-610.4708445633470,-2958.3874891266200,10667.124172106300,-13509.751976698900,20959.00725829690,0.0,0.0,0.0,0.406,-0.47600000000000000,-0.84,192.0,0.0,0.0,0.0,0.0,0.0,0.0,0.0,0.0,0.0,1.67814052384176E+09,0.0,2023-03-06 14:08:43.841
108.0,-619.7021150233880,-2959.952111238490,10629.439130954600,-13504.85694466320,20942.37756042210,0.0,0.0,0.0,0.406,-0.47600000000000000,-0.84,192.0,0.0,0.0,0.0,0.0,0.0,0.0,0.0,0.0,0.0,1.67814052384476E+09,0.0,2023-03-06 14:08:43.844
109.0,-611.9237079529410,-2958.6110065711700,10657.736439435100,-13502.174735328500,20957.755560607400,0.0,0.0,0.0,0.406,-0.47600000000000000,-0.84,192.0,0.0,0.0,0.0,0.0,0.0,0.0,0.0,0.0,0.0,1.67814052384876E+09,0.0,2023-03-06 14:08:43.848
110.0,-603.5418037822010,-2955.9064454920800,10694.102727663800,-13505.974531885900,20978.2521102729,0.0,0.0,0.0,0.406,-0.47600000000000000,-0.84,192.0,0.0,0.0,0.0,0.0,0.0,0.0,0.0,0.0,0.0,1.67814052385278E+09,0.0,2023-03-06 14:08:43.852
111.0,-609.2862021072150,-2956.6217013146500,10684.804401970400,-13512.568296500200,20977.425095728100,0.0,0.0,0.0,0.406,-0.47600000000000000,-0.84,192.0,0.0,0.0,0.0,0.0,0.0,0.0,0.0,0.0,0.0,1.67814052385683E+09,0.0,2023-03-06 14:08:43.856
112.0,-619.970335956852,-2957.135791437120,10641.732590405100,-13508.85790692070,20959.119017019200,0.0,0.0,0.0,0.406,-0.47600000000000000,-0.84,192.0,0.0,0.0,0.0,0.0,0.0,0.0,0.0,0.0,0.0,1.6781405238608E+09,0.0,2023-03-06 14:08:43.860
113.0,-619.612708045567,-2960.6226635721500,10656.440038256700,-13506.130994097100,20965.533967677800,0.0,0.0,0.0,0.406,-0.47600000000000000,-0.84,192.0,0.0,0.0,0.0,0.0,0.0,0.0,0.0,0.0,0.0,1.67814052386481E+09,0.0,2023-03-06 14:08:43.864
114.0,-615.8576149770760,-2962.2096374284800,10689.632378772800,-13507.740319697900,20980.10730506270,0.0,0.0,0.0,0.406,-0.47600000000000000,-0.84,192.0,0.0,0.0,0.0,0.0,0.0,0.0,0.0,0.0,0.0,1.67814052386985E+09,0.0,2023-03-06 14:08:43.869
115.0,-619.0092109452740,-2963.081355462240,10685.989044426600,-13510.981322643900,20975.68165966050,0.0,0.0,0.0,0.406,-0.47600000000000000,-0.84,192.0,0.0,0.0,0.0,0.0,0.0,0.0,0.0,0.0,0.0,1.67814052387286E+09,0.0,2023-03-06 14:08:43.872
116.0,-629.1792546724390,-2962.343747895210,10638.156311292200,-13516.077520379700,20955.050999528300,0.0,0.0,0.0,0.41200000000000000,-0.48,-0.84,192.0,12.0,224.0,241.0,0.0,229.0,192.0,0.0,0.0,0.0,1.678140523877E+09,0.0,2023-03-06 14:08:43.876
117.0,-628.3522401275920,-2964.1095357071800,10639.363305492800,-13513.618828489600,20959.76721760840,0.0,0.0,0.0,0.41200000000000000,-0.48,-0.84,192.0,0.0,0.0,0.0,0.0,0.0,0.0,0.0,0.0,0.0,1.67814052388089E+09,0.0,2023-03-06 14:08:43.880
118.0,-621.6020133020890,-2963.2601694178800,10678.232989100600,-13508.522630753800,20973.938223593000,0.0,0.0,0.0,0.41200000000000000,-0.48,-0.84,192.0,0.0,0.0,0.0,0.0,0.0,0.0,0.0,0.0,0.0,1.67814052388494E+09,0.0,2023-03-06 14:08:43.884
119.0,-619.5233010677460,-2960.3544426386900,10688.380681083300,-13508.992017387400,20983.080087075200,0.0,0.0,0.0,0.41200000000000000,-0.48,-0.84,192.0,0.0,0.0,0.0,0.0,0.0,0.0,0.0,0.0,0.0,1.67814052388897E+09,0.0,2023-03-06 14:08:43.888
120.0,-620.9761644573410,-2959.952111238490,10648.259299786000,-13520.48081403740,20965.735133377900,0.0,0.0,0.0,0.41200000000000000,-0.48,-0.84,192.0,0.0,0.0,0.0,0.0,0.0,0.0,0.0,0.0,0.0,1.67814052389297E+09,0.0,2023-03-06 14:08:43.892
121.0,-618.8527487340870,-2959.147448438100,10641.39731423820,-13520.48081403740,20957.196766996,0.0,0.0,0.0,0.41200000000000000,-0.48,-0.84,192.0,0.0,0.0,0.0,0.0,0.0,0.0,0.0,0.0,0.0,1.678140523898E+09,0.0,2023-03-06 14:08:43.898
122.0,-608.6603532624670,-2954.1630094245700,10683.150372880700,-13516.748072713400,20973.737057892900,0.0,0.0,0.0,0.41200000000000000,-0.48,-0.84,192.0,0.0,0.0,0.0,0.0,0.0,0.0,0.0,0.0,0.0,1.67814052390101E+09,0.0,2023-03-06 14:08:43.901
123.0,-610.2920306077040,-2960.019166471860,10699.489498077600,-13518.089177380700,20974.67583116010,0.0,0.0,0.0,0.41200000000000000,-0.48,-0.84,192.0,0.0,0.0,0.0,0.0,0.0,0.0,0.0,0.0,0.0,1.67814052390398E+09,0.0,2023-03-06 14:08:43.903
124.0,-620.6185365460560,-2961.8743612616500,10661.424477270200,-13525.91228794010,20960.30365947530,0.0,0.0,0.0,0.41200000000000000,-0.48,-0.84,192.0,0.0,0.0,0.0,0.0,0.0,0.0,0.0,0.0,0.0,1.67814052390903E+09,0.0,2023-03-06 14:08:43.909
125.0,-626.2064726598830,-2962.030823472840,10638.424532225700,-13529.555622286300,20954.71572336150,0.0,0.0,0.0,0.41200000000000000,-0.48,-0.84,192.0,0.0,0.0,0.0,0.0,0.0,0.0,0.0,0.0,0.0,1.67814052391303E+09,0.0,2023-03-06 14:08:43.913
126.0,-617.3328301111260,-2961.7402507949200,10674.835523943400,-13524.325314083700,20970.652517158100,0.0,0.0,0.0,0.40800000000000000,-0.47800000000000000,-0.834,192.0,12.0,192.0,241.0,16.0,229.0,240.0,0.0,0.0,0.0,1.6781405239171E+09,0.0,2023-03-06 14:08:43.917
127.0,-608.7274084958330,-2957.6051780706900,10698.081338176900,-13516.703369224500,20981.470761474500,0.0,0.0,0.0,0.40800000000000000,-0.47800000000000000,-0.834,192.0,0.0,0.0,0.0,0.0,0.0,0.0,0.0,0.0,0.0,1.67814052392108E+09,0.0,2023-03-06 14:08:43.921
128.0,-621.1102749240730,-2959.080393204740,10669.292291318500,-13515.094043623700,20972.038325314300,0.0,0.0,0.0,0.40800000000000000,-0.47800000000000000,-0.834,192.0,0.0,0.0,0.0,0.0,0.0,0.0,0.0,0.0,0.0,1.67814052392415E+09,0.0,2023-03-06 14:08:43.924
129.0,-633.7390105413210,-2961.2932159058100,10636.949317091600,-13515.67518897950,20955.274516972800,0.0,0.0,0.0,0.40800000000000000,-0.47800000000000000,-0.834,192.0,0.0,0.0,0.0,0.0,0.0,0.0,0.0,0.0,0.0,1.67814052392817E+09,0.0,2023-03-06 14:08:43.928
130.0,-622.4737313358460,-2959.3486141382,10669.336994807400,-13513.216497089400,20968.3502874792,0.0,0.0,0.0,0.40800000000000000,-0.47800000000000000,-0.834,192.0,0.0,0.0,0.0,0.0,0.0,0.0,0.0,0.0,0.0,1.67814052393222E+09,0.0,2023-03-06 14:08:43.932
131.0,-611.744893997299,-2957.5604745817800,10694.21448638610,-13510.713101710500,20978.2521102729,0.0,0.0,0.0,0.40800000000000000,-0.47800000000000000,-0.834,192.0,0.0,0.0,0.0,0.0,0.0,0.0,0.0,0.0,0.0,1.67814052393719E+09,0.0,2023-03-06 14:08:43.937
132.0,-617.7798650002320,-2960.2426839164100,10669.24758782950,-13509.997845887900,20968.015011312400,0.0,0.0,0.0,0.40800000000000000,-0.47800000000000000,-0.834,192.0,0.0,0.0,0.0,0.0,0.0,0.0,0.0,0.0,0.0,1.6781405239412E+09,0.0,2023-03-06 14:08:43.941
133.0,-630.0062692172850,-2961.382622883630,10624.521747174500,-13501.034796361300,20957.95672630750,0.0,0.0,0.0,0.40800000000000000,-0.47800000000000000,-0.834,192.0,0.0,0.0,0.0,0.0,0.0,0.0,0.0,0.0,0.0,1.67814052394518E+09,0.0,2023-03-06 14:08:43.945
134.0,-621.2443853908050,-2958.856875760180,10645.82295964040,-13494.038700346800,20982.700107419500,0.0,0.0,0.0,0.40800000000000000,-0.47800000000000000,-0.834,192.0,0.0,0.0,0.0,0.0,0.0,0.0,0.0,0.0,0.0,1.67814052394924E+09,0.0,2023-03-06 14:08:43.949
135.0,-609.5991265295900,-2957.739288537420,10678.456506545100,-13504.700482452000,20992.177247068600,0.0,0.0,0.0,0.40800000000000000,-0.47800000000000000,-0.834,192.0,0.0,0.0,0.0,0.0,0.0,0.0,0.0,0.0,0.0,1.67814052395226E+09,0.0,2023-03-06 14:08:43.952
136.0,-617.6234027890450,-2962.5449135953100,10668.130000606800,-13503.605246973700,20985.58348245420,0.0,0.0,0.0,0.41000000000000000,-0.47800000000000000,-0.8280000000000000,192.0,12.0,208.0,241.0,16.0,230.0,32.0,0.0,0.0,0.0,1.67814052395625E+09,0.0,2023-03-06 14:08:43.956
137.0,-632.487312851824,-2964.7130328074700,10622.554793662400,-13500.364244027600,20966.33863047820,0.0,0.0,0.0,0.41000000000000000,-0.47800000000000000,-0.8280000000000000,192.0,0.0,0.0,0.0,0.0,0.0,0.0,0.0,0.0,0.0,1.67814052396036E+09,0.0,2023-03-06 14:08:43.960
138.0,-629.134551183528,-2966.0988409637000,10636.882261858300,-13506.62273247510,20978.073296317300,0.0,0.0,0.0,0.41000000000000000,-0.47800000000000000,-0.8280000000000000,192.0,0.0,0.0,0.0,0.0,0.0,0.0,0.0,0.0,0.0,1.67814052396429E+09,0.0,2023-03-06 14:08:43.964
139.0,-615.6564492769780,-2963.5507420958000,10676.087221632900,-13505.236924318900,20995.217084314500,0.0,0.0,0.0,0.41000000000000000,-0.47800000000000000,-0.8280000000000000,192.0,0.0,0.0,0.0,0.0,0.0,0.0,0.0,0.0,0.0,1.67814052396931E+09,0.0,2023-03-06 14:08:43.969
140.0,-618.875100478542,-2964.891846763120,10676.377794310800,-13505.438090019000,20992.266654046400,0.0,0.0,0.0,0.41000000000000000,-0.47800000000000000,-0.8280000000000000,192.0,0.0,0.0,0.0,0.0,0.0,0.0,0.0,0.0,0.0,1.67814052397336E+09,0.0,2023-03-06 14:08:43.973
141.0,-633.4037343744920,-2963.930721751540,10631.115511788800,-13502.554714984300,20974.85464511570,0.0,0.0,0.0,0.41000000000000000,-0.47800000000000000,-0.8280000000000000,192.0,0.0,0.0,0.0,0.0,0.0,0.0,0.0,0.0,0.0,1.67814052397737E+09,0.0,2023-03-06 14:08:43.977
142.0,-623.2560423917820,-2958.8345240157300,10635.831729868900,-13504.074633607200,20979.99554634040,0.0,0.0,0.0,0.41000000000000000,-0.47800000000000000,-0.8280000000000000,192.0,0.0,0.0,0.0,0.0,0.0,0.0,0.0,0.0,0.0,1.67814052398042E+09,0.0,2023-03-06 14:08:43.980
143.0,-606.4922340503020,-2952.8442565017100,10678.523561778500,-13502.599418473200,20998.413383771600,0.0,0.0,0.0,0.41000000000000000,-0.47800000000000000,-0.8280000000000000,192.0,0.0,0.0,0.0,0.0,0.0,0.0,0.0,0.0,0.0,1.6781405239844E+09,0.0,2023-03-06 14:08:43.984
144.0,-605.5981642720900,-2951.9054832345800,10690.369986339800,-13504.499316751900,20997.318148293300,0.0,0.0,0.0,0.41000000000000000,-0.47800000000000000,-0.8280000000000000,192.0,0.0,0.0,0.0,0.0,0.0,0.0,0.0,0.0,0.0,1.67814052398838E+09,0.0,2023-03-06 14:08:43.988
145.0,-622.3172691246590,-2953.313643135270,10651.030916098500,-13505.952180141500,20976.95570909450,0.0,0.0,0.0,0.41000000000000000,-0.47800000000000000,-0.8280000000000000,192.0,0.0,0.0,0.0,0.0,0.0,0.0,0.0,0.0,0.0,1.67814052399243E+09,0.0,2023-03-06 14:08:43.992
146.0,-628.3522401275920,-2956.0405559588100,10638.9609740926,-13506.086290608200,20980.979023096400,0.0,0.0,0.0,0.41000000000000000,-0.47800000000000000,-0.84,192.0,12.0,208.0,241.0,16.0,229.0,192.0,0.0,0.0,0.0,1.67814052399648E+09,0.0,2023-03-06 14:08:43.996
147.0,-612.3707428420480,-2952.978366968440,10675.64018674380,-13507.405043531100,20998.92747389410,0.0,0.0,0.0,0.41000000000000000,-0.47800000000000000,-0.84,192.0,0.0,0.0,0.0,0.0,0.0,0.0,0.0,0.0,0.0,1.67814052400146E+09,0.0,2023-03-06 14:08:44.001
148.0,-609.3309055961260,-2953.268939646360,10692.113422407300,-13502.2864940508,21006.01297688640,0.0,0.0,0.0,0.41000000000000000,-0.47800000000000000,-0.84,192.0,0.0,0.0,0.0,0.0,0.0,0.0,0.0,0.0,0.0,1.67814052400548E+09,0.0,2023-03-06 14:08:44.005
149.0,-622.9878214583180,-2958.5886548267200,10654.54013997800,-13500.274837049800,20992.53487497980,0.0,0.0,0.0,0.41000000000000000,-0.47800000000000000,-0.84,192.0,0.0,0.0,0.0,0.0,0.0,0.0,0.0,0.0,0.0,1.67814052400846E+09,0.0,2023-03-06 14:08:44.008
150.0,-628.8663302500640,-2963.930721751540,10628.835633854300,-13498.129069582100,20981.224892285500,0.0,0.0,0.0,0.41000000000000000,-0.47800000000000000,-0.84,192.0,0.0,0.0,0.0,0.0,0.0,0.0,0.0,0.0,0.0,1.6781405240125E+09,0.0,2023-03-06 14:08:44.012
151.0,-619.6574115344780,-2963.1260589511500,10665.604253483300,-13496.81031665930,20996.87111340420,0.0,0.0,0.0,0.41000000000000000,-0.47800000000000000,-0.84,192.0,0.0,0.0,0.0,0.0,0.0,0.0,0.0,0.0,0.0,1.67814052401655E+09,0.0,2023-03-06 14:08:44.016
152.0,-612.7060190088770,-2957.9181024930600,10692.135774151800,-13499.269008549300,21009.097517621200,0.0,0.0,0.0,0.41000000000000000,-0.47800000000000000,-0.84,192.0,0.0,0.0,0.0,0.0,0.0,0.0,0.0,0.0,0.0,1.67814052402054E+09,0.0,2023-03-06 14:08:44.020
153.0,-614.1365306540170,-2956.0182042143600,10665.87247441680,-13508.299113309300,20995.798229670300,0.0,0.0,0.0,0.41000000000000000,-0.47800000000000000,-0.84,192.0,0.0,0.0,0.0,0.0,0.0,0.0,0.0,0.0,0.0,1.67814052402457E+09,0.0,2023-03-06 14:08:44.024
154.0,-621.065571435162,-2957.5604745817800,10631.29432574440,-13510.489584265900,20973.267671259400,0.0,0.0,0.0,0.41000000000000000,-0.47800000000000000,-0.84,192.0,0.0,0.0,0.0,0.0,0.0,0.0,0.0,0.0,0.0,1.6781405240286E+09,0.0,2023-03-06 14:08:44.028
155.0,-614.3376963541150,-2957.5604745817800,10661.491532503500,-13505.013406874300,20984.220026042500,0.0,0.0,0.0,0.41000000000000000,-0.47800000000000000,-0.84,192.0,0.0,0.0,0.0,0.0,0.0,0.0,0.0,0.0,0.0,1.6781405240336E+09,0.0,2023-03-06 14:08:44.033
156.0,-608.7497602402880,-2953.7159745354600,10695.332073608900,-13507.785023186800,20990.657328445600,0.0,0.0,0.0,0.40800000000000000,-0.482,-0.834,192.0,12.0,192.0,240.0,240.0,229.0,240.0,0.0,0.0,0.0,1.67814052403661E+09,0.0,2023-03-06 14:08:44.036
157.0,-613.421274831447,-2953.91714023556,10679.462335045600,-13514.311732567800,20984.175322553600,0.0,0.0,0.0,0.40800000000000000,-0.482,-0.834,192.0,0.0,0.0,0.0,0.0,0.0,0.0,0.0,0.0,0.0,1.67814052404062E+09,0.0,2023-03-06 14:08:44.040
158.0,-618.3386586116150,-2952.82190475725,10637.932793847700,-13513.216497089400,20966.67390664510,0.0,0.0,0.0,0.40800000000000000,-0.482,-0.834,192.0,0.0,0.0,0.0,0.0,0.0,0.0,0.0,0.0,0.0,1.67814052404464E+09,0.0,2023-03-06 14:08:44.044
159.0,-613.0636469201620,-2954.498285591400,10660.463352258600,-13505.929828397000,20979.950842851500,0.0,0.0,0.0,0.40800000000000000,-0.482,-0.834,192.0,0.0,0.0,0.0,0.0,0.0,0.0,0.0,0.0,0.0,1.67814052404867E+09,0.0,2023-03-06 14:08:44.048
160.0,-607.162786383961,-2953.7383262799200,10693.9239137082,-13510.333122054700,20997.094630848700,0.0,0.0,0.0,0.40800000000000000,-0.482,-0.834,192.0,0.0,0.0,0.0,0.0,0.0,0.0,0.0,0.0,0.0,1.67814052405274E+09,0.0,2023-03-06 14:08:44.052
161.0,-613.197757386894,-2953.7159745354600,10685.810230470900,-13513.238848833900,20997.765183182400,0.0,0.0,0.0,0.40800000000000000,-0.482,-0.834,192.0,0.0,0.0,0.0,0.0,0.0,0.0,0.0,0.0,0.0,1.67814052405672E+09,0.0,2023-03-06 14:08:44.056
162.0,-624.194815658905,-2956.7781635258400,10639.363305492800,-13506.689787708500,20979.302642262300,0.0,0.0,0.0,0.40800000000000000,-0.482,-0.834,192.0,0.0,0.0,0.0,0.0,0.0,0.0,0.0,0.0,0.0,1.67814052406175E+09,0.0,2023-03-06 14:08:44.061
163.0,-618.4504173338910,-2956.174666425550,10649.622756197800,-13492.027043345800,20994.881808147600,0.0,0.0,0.0,0.40800000000000000,-0.482,-0.834,192.0,0.0,0.0,0.0,0.0,0.0,0.0,0.0,0.0,0.0,1.67814052406475E+09,0.0,2023-03-06 14:08:44.064
164.0,-610.9178794524530,-2953.894788491110,10683.865628703300,-13484.360394997600,21007.39878504260,0.0,0.0,0.0,0.40800000000000000,-0.482,-0.834,192.0,0.0,0.0,0.0,0.0,0.0,0.0,0.0,0.0,0.0,1.67814052406774E+09,0.0,2023-03-06 14:08:44.067
165.0,-615.0976556655950,-2960.8014775277900,10683.038614158500,-13502.599418473200,20989.584444711700,0.0,0.0,0.0,0.40800000000000000,-0.482,-0.834,192.0,0.0,0.0,0.0,0.0,0.0,0.0,0.0,0.0,0.0,1.67814052407279E+09,0.0,2023-03-06 14:08:44.072
166.0,-622.1384551690170,-2961.472029861450,10638.357476992300,-13522.872450694100,20957.286173973800,0.0,0.0,0.0,0.40800000000000000,-0.482,-0.834,192.0,0.0,0.0,0.0,0.0,0.0,0.0,0.0,0.0,0.0,1.67814052407682E+09,0.0,2023-03-06 14:08:44.076
167.0,-616.7293330108320,-2958.499247848900,10638.402180481200,-13520.05613089280,20961.443598442500,0.0,0.0,0.0,0.41000000000000000,-0.482,-0.836,192.0,12.0,208.0,240.0,240.0,229.0,224.0,0.0,0.0,0.0,1.67814052408083E+09,0.0,2023-03-06 14:08:44.080
168.0,-603.0500654041850,-2949.2903291333100,10675.841352443900,-13515.496375023900,20980.129656807100,0.0,0.0,0.0,0.41000000000000000,-0.482,-0.836,192.0,0.0,0.0,0.0,0.0,0.0,0.0,0.0,0.0,0.0,1.67814052408483E+09,0.0,2023-03-06 14:08:44.084
169.0,-601.0384084032070,-2948.977404710940,10686.614893271300,-13536.01527643390,20964.103456032700,0.0,0.0,0.0,0.41000000000000000,-0.482,-0.836,192.0,0.0,0.0,0.0,0.0,0.0,0.0,0.0,0.0,0.0,1.67814052408885E+09,0.0,2023-03-06 14:08:44.088
170.0,-614.4941585653020,-2952.4419251015100,10649.935680620200,-13552.82378826430,20928.564182348800,0.0,0.0,0.0,0.41000000000000000,-0.482,-0.836,192.0,0.0,0.0,0.0,0.0,0.0,0.0,0.0,0.0,0.0,1.67814052409288E+09,0.0,2023-03-06 14:08:44.092
171.0,-617.1093126665730,-2952.620739057150,10640.011506082000,-13551.527387085800,20921.43397586750,0.0,0.0,0.0,0.41000000000000000,-0.482,-0.836,192.0,0.0,0.0,0.0,0.0,0.0,0.0,0.0,0.0,0.0,1.67814052409589E+09,0.0,2023-03-06 14:08:44.095
172.0,-603.2065276153720,-2950.564378567260,10679.842314701400,-13547.548776572800,20936.409644652600,0.0,0.0,0.0,0.41000000000000000,-0.482,-0.836,192.0,0.0,0.0,0.0,0.0,0.0,0.0,0.0,0.0,0.0,1.6781405241E+09,0.0,2023-03-06 14:08:44.100
173.0,-598.937344424408,-2951.1008204341900,10696.516716065000,-13557.741172044400,20924.38440613560,0.0,0.0,0.0,0.41000000000000000,-0.482,-0.836,192.0,0.0,0.0,0.0,0.0,0.0,0.0,0.0,0.0,0.0,1.67814052410492E+09,0.0,2023-03-06 14:08:44.104
174.0,-609.3085538516710,-2950.899654734090,10660.575110980900,-13572.918006529600,20893.159019131500,0.0,0.0,0.0,0.41000000000000000,-0.482,-0.836,192.0,0.0,0.0,0.0,0.0,0.0,0.0,0.0,0.0,0.0,1.67814052410903E+09,0.0,2023-03-06 14:08:44.109
175.0,-614.6059172875780,-2946.2281401429300,10634.512976946000,-13563.262052924900,20893.986033676400,0.0,0.0,0.0,0.41000000000000000,-0.482,-0.836,192.0,0.0,0.0,0.0,0.0,0.0,0.0,0.0,0.0,0.0,1.67814052411303E+09,0.0,2023-03-06 14:08:44.113
176.0,-604.8158532161540,-2947.6810035325300,10673.360308809300,-13562.613852335700,20915.354301375700,0.0,0.0,0.0,0.41000000000000000,-0.482,-0.836,192.0,0.0,0.0,0.0,0.0,0.0,0.0,0.0,0.0,0.0,1.678140524117E+09,0.0,2023-03-06 14:08:44.116
177.0,-598.4456060463910,-2948.5080180773800,10700.092995177900,-13563.127942458100,20920.584609578200,0.0,0.0,0.0,0.40800000000000000,-0.47800000000000000,-0.8300000000000000,192.0,12.0,192.0,241.0,16.0,230.0,16.0,0.0,0.0,0.0,1.678140524121E+09,0.0,2023-03-06 14:08:44.121
178.0,-609.7332369963210,-2949.111515177670,10673.78499195400,-13557.897634255600,20908.559371061300,0.0,0.0,0.0,0.40800000000000000,-0.47800000000000000,-0.8300000000000000,192.0,0.0,0.0,0.0,0.0,0.0,0.0,0.0,0.0,0.0,1.67814052412402E+09,0.0,2023-03-06 14:08:44.124
179.0,-618.6292312895340,-2953.1348291796200,10636.882261858300,-13560.177512190000,20891.37087957510,0.0,0.0,0.0,0.40800000000000000,-0.47800000000000000,-0.8300000000000000,192.0,0.0,0.0,0.0,0.0,0.0,0.0,0.0,0.0,0.0,1.67814052412807E+09,0.0,2023-03-06 14:08:44.128
180.0,-610.8061207301760,-2952.0395937013100,10666.788895939500,-13558.277613911300,20908.872295483600,0.0,0.0,0.0,0.40800000000000000,-0.47800000000000000,-0.8300000000000000,192.0,0.0,0.0,0.0,0.0,0.0,0.0,0.0,0.0,0.0,1.67814052413207E+09,0.0,2023-03-06 14:08:44.132
181.0,-604.2123561158610,-2948.016279699360,10696.986102698600,-13551.929718486000,20926.887801514600,0.0,0.0,0.0,0.40800000000000000,-0.47800000000000000,-0.8300000000000000,192.0,0.0,0.0,0.0,0.0,0.0,0.0,0.0,0.0,0.0,1.67814052413708E+09,0.0,2023-03-06 14:08:44.137
182.0,-610.9625829413630,-2948.7985907552900,10678.30004433390,-13554.790741776300,20926.351359647700,0.0,0.0,0.0,0.40800000000000000,-0.47800000000000000,-0.8300000000000000,192.0,0.0,0.0,0.0,0.0,0.0,0.0,0.0,0.0,0.0,1.67814052414109E+09,0.0,2023-03-06 14:08:44.141
183.0,-619.5680045566560,-2949.826771000240,10635.854081613300,-13550.812131263300,20914.013196708300,0.0,0.0,0.0,0.40800000000000000,-0.47800000000000000,-0.8300000000000000,192.0,0.0,0.0,0.0,0.0,0.0,0.0,0.0,0.0,0.0,1.67814052414419E+09,0.0,2023-03-06 14:08:44.144
184.0,-609.9567544408740,-2950.2291024004300,10657.62468071280,-13545.626526549600,20922.015121223300,0.0,0.0,0.0,0.40800000000000000,-0.47800000000000000,-0.8300000000000000,192.0,0.0,0.0,0.0,0.0,0.0,0.0,0.0,0.0,0.0,1.67814052414819E+09,0.0,2023-03-06 14:08:44.148
185.0,-600.5243182807350,-2948.1056866771800,10693.007492185500,-13547.839349250700,20935.269705685300,0.0,0.0,0.0,0.40800000000000000,-0.47800000000000000,-0.8300000000000000,192.0,0.0,0.0,0.0,0.0,0.0,0.0,0.0,0.0,0.0,1.67814052415218E+09,0.0,2023-03-06 14:08:44.152
186.0,-607.5651177841570,-2950.0949919337000,10687.64307351630,-13546.475892838900,20937.795452808800,0.0,0.0,0.0,0.40800000000000000,-0.47800000000000000,-0.8300000000000000,192.0,0.0,0.0,0.0,0.0,0.0,0.0,0.0,0.0,0.0,1.6781405241562E+09,0.0,2023-03-06 14:08:44.156
187.0,-621.6690685354550,-2953.0677739462600,10643.923061361700,-13538.831596235200,20922.08217645670,0.0,0.0,0.0,0.40800000000000000,-0.47400000000000000,-0.834,192.0,12.0,192.0,241.0,48.0,229.0,240.0,0.0,0.0,0.0,1.67814052416019E+09,0.0,2023-03-06 14:08:44.160
188.0,-617.4445888334020,-2955.9735007254500,10653.958994622100,-13534.428302577500,20930.08410097170,0.0,0.0,0.0,0.40800000000000000,-0.47400000000000000,-0.834,192.0,0.0,0.0,0.0,0.0,0.0,0.0,0.0,0.0,0.0,1.6781405241652E+09,0.0,2023-03-06 14:08:44.165
189.0,-607.4757108063350,-2954.900616991590,10690.749965995500,-13532.863680465700,20952.078217515700,0.0,0.0,0.0,0.40800000000000000,-0.47400000000000000,-0.834,192.0,0.0,0.0,0.0,0.0,0.0,0.0,0.0,0.0,0.0,1.67814052416926E+09,0.0,2023-03-06 14:08:44.169
190.0,-609.7332369963210,-2955.3476518807000,10693.029843930000,-13528.706255997000,20959.119017019200,0.0,0.0,0.0,0.40800000000000000,-0.47400000000000000,-0.834,192.0,0.0,0.0,0.0,0.0,0.0,0.0,0.0,0.0,0.0,1.67814052417225E+09,0.0,2023-03-06 14:08:44.172
191.0,-618.7186382673550,-2953.268939646360,10647.231119541100,-13523.587706516700,20950.0442087703,0.0,0.0,0.0,0.40800000000000000,-0.47400000000000000,-0.834,192.0,0.0,0.0,0.0,0.0,0.0,0.0,0.0,0.0,0.0,1.67814052417628E+09,0.0,2023-03-06 14:08:44.176
192.0,-616.1928911439050,-2954.0512507022900,10644.750075906500,-13519.050302392300,20955.34157220620,0.0,0.0,0.0,0.40800000000000000,-0.47400000000000000,-0.834,192.0,0.0,0.0,0.0,0.0,0.0,0.0,0.0,0.0,0.0,1.67814052418028E+09,0.0,2023-03-06 14:08:44.180
193.0,-604.4805770493240,-2952.7548495238800,10685.720823493100,-13513.998808145400,20972.664174159100,0.0,0.0,0.0,0.40800000000000000,-0.47400000000000000,-0.834,192.0,0.0,0.0,0.0,0.0,0.0,0.0,0.0,0.0,0.0,1.67814052418432E+09,0.0,2023-03-06 14:08:44.184
194.0,-602.424216559436,-2952.374869868140,10695.935570709200,-13514.267029078800,20973.781761381800,0.0,0.0,0.0,0.40800000000000000,-0.47400000000000000,-0.834,192.0,0.0,0.0,0.0,0.0,0.0,0.0,0.0,0.0,0.0,1.67814052418831E+09,0.0,2023-03-06 14:08:44.188
195.0,-614.5165103097570,-2951.883131490130,10654.048401599900,-13520.525517526300,20956.548566406800,0.0,0.0,0.0,0.40800000000000000,-0.47400000000000000,-0.834,192.0,0.0,0.0,0.0,0.0,0.0,0.0,0.0,0.0,0.0,1.67814052419233E+09,0.0,2023-03-06 14:08:44.192
196.0,-617.6234027890450,-2953.0007187128900,10639.765636893000,-13520.950200671000,20952.81582508280,0.0,0.0,0.0,0.40800000000000000,-0.47400000000000000,-0.834,192.0,0.0,0.0,0.0,0.0,0.0,0.0,0.0,0.0,0.0,1.67814052419735E+09,0.0,2023-03-06 14:08:44.197
197.0,-603.9441351823970,-2950.899654734090,10679.931721679200,-13523.408892561100,20973.04415381480,0.0,0.0,0.0,0.402,-0.47600000000000000,-0.8320000000000000,192.0,12.0,144.0,241.0,32.0,230.0,0.0,0.0,0.0,0.0,1.67814052420138E+09,0.0,2023-03-06 14:08:44.201
198.0,-597.7750537127320,-2948.8656459886600,10701.456451589600,-13521.240773348900,20988.086877833200,0.0,0.0,0.0,0.402,-0.47600000000000000,-0.8320000000000000,192.0,0.0,0.0,0.0,0.0,0.0,0.0,0.0,0.0,0.0,1.67814052420446E+09,0.0,2023-03-06 14:08:44.204
199.0,-609.4650160628580,-2949.5138465778600,10669.560512251900,-13521.710159982500,20972.06067705880,0.0,0.0,0.0,0.402,-0.47600000000000000,-0.8320000000000000,192.0,0.0,0.0,0.0,0.0,0.0,0.0,0.0,0.0,0.0,1.67814052420841E+09,0.0,2023-03-06 14:08:44.208
200.0,-614.807082987676,-2950.0055849558800,10642.559604949900,-13523.118319883100,20955.050999528300,0.0,0.0,0.0,0.402,-0.47600000000000000,-0.8320000000000000,192.0,0.0,0.0,0.0,0.0,0.0,0.0,0.0,0.0,0.0,1.67814052421241E+09,0.0,2023-03-06 14:08:44.212
201.0,-603.3629898265590,-2947.8151139992600,10679.104707134300,-13521.888973938100,20968.3502874792,0.0,0.0,0.0,0.402,-0.47600000000000000,-0.8320000000000000,192.0,0.0,0.0,0.0,0.0,0.0,0.0,0.0,0.0,0.0,1.67814052421646E+09,0.0,2023-03-06 14:08:44.216
202.0,-597.9315159239190,-2948.2397971439100,10706.060910947400,-13516.524555268800,20979.660270173600,0.0,0.0,0.0,0.402,-0.47600000000000000,-0.8320000000000000,192.0,0.0,0.0,0.0,0.0,0.0,0.0,0.0,0.0,0.0,1.67814052422047E+09,0.0,2023-03-06 14:08:44.220
203.0,-605.9557921833750,-2948.753887266380,10679.909369934700,-13518.692674481000,20963.52231067690,0.0,0.0,0.0,0.402,-0.47600000000000000,-0.8320000000000000,192.0,0.0,0.0,0.0,0.0,0.0,0.0,0.0,0.0,0.0,1.67814052422551E+09,0.0,2023-03-06 14:08:44.225
204.0,-612.7060190088770,-2947.3010238767900,10641.576128193900,-13522.447767549500,20948.300772702800,0.0,0.0,0.0,0.402,-0.47600000000000000,-0.8320000000000000,192.0,0.0,0.0,0.0,0.0,0.0,0.0,0.0,0.0,0.0,1.6781405242285E+09,0.0,2023-03-06 14:08:44.228
205.0,-607.7662834842540,-2947.4574860879800,10669.135829107300,-13524.526479783800,20967.366810723200,0.0,0.0,0.0,0.402,-0.47600000000000000,-0.8320000000000000,192.0,0.0,0.0,0.0,0.0,0.0,0.0,0.0,0.0,0.0,1.67814052423151E+09,0.0,2023-03-06 14:08:44.231
206.0,-602.0889403926060,-2949.8044192557800,10700.942361467200,-13522.827747205200,20983.080087075200,0.0,0.0,0.0,0.402,-0.47600000000000000,-0.8320000000000000,192.0,0.0,0.0,0.0,0.0,0.0,0.0,0.0,0.0,0.0,1.67814052423654E+09,0.0,2023-03-06 14:08:44.236
207.0,-606.9616206838630,-2952.888959990620,10688.090108405400,-13520.346703570700,20974.63112767110,0.0,0.0,0.0,0.406,-0.482,-0.8280000000000000,192.0,12.0,176.0,240.0,240.0,230.0,32.0,0.0,0.0,0.0,1.67814052424052E+09,0.0,2023-03-06 14:08:44.240
208.0,-616.9081469664750,-2955.6605763030700,10646.44880848510,-13515.183450601500,20953.128749505100,0.0,0.0,0.0,0.406,-0.482,-0.8280000000000000,192.0,0.0,0.0,0.0,0.0,0.0,0.0,0.0,0.0,0.0,1.6781405242446E+09,0.0,2023-03-06 14:08:44.244
209.0,-613.421274831447,-2957.3146053927700,10666.25245407250,-13517.932715169500,20956.19093849550,0.0,0.0,0.0,0.406,-0.482,-0.8280000000000000,192.0,0.0,0.0,0.0,0.0,0.0,0.0,0.0,0.0,0.0,1.67814052424857E+09,0.0,2023-03-06 14:08:44.248
210.0,-606.6933997504000,-2957.0016809703900,10702.931666723700,-13522.783043716300,20962.13650252060,0.0,0.0,0.0,0.406,-0.482,-0.8280000000000000,192.0,0.0,0.0,0.0,0.0,0.0,0.0,0.0,0.0,0.0,1.67814052425364E+09,0.0,2023-03-06 14:08:44.253
211.0,-612.2589841197710,-2957.8063437707800,10696.539067809500,-13524.48177629490,20958.537871663300,0.0,0.0,0.0,0.406,-0.482,-0.8280000000000000,192.0,0.0,0.0,0.0,0.0,0.0,0.0,0.0,0.0,0.0,1.6781405242566E+09,0.0,2023-03-06 14:08:44.256
