Sample Index,EXG Channel 0,EXG Channel 1,EXG Channel 2,EXG Channel 3,EXG Channel 4,EXG Channel 5,EXG Channel 6,EXG Channel 7,Accel Channel 0,Accel Channel 1,Accel Channel 2, Other, Other, Other, Other, Other, Other, Other,Analog Channel 0,Analog Channel 1,Analog Channel 2, Timestamp, Other, Timestamp
78.0,-3652.655023652910,-7659.18286552225,9747.88632963733,-14154.309231556600,23619.177772900800,0.0,0.0,0.0,0.0,0.0,0.0,192.0,0.0,0.0,0.0,0.0,0.0,0.0,0.0,0.0,0.0,1.67814032349829E+09,0.0,2023-03-06 14:05:23.498
79.0,-3657.505352199720,-7659.9651765781900,9726.339247982410,-14144.563870974000,23619.110717667400,0.0,0.0,0.0,0.0,0.0,0.0,192.0,0.0,0.0,0.0,0.0,0.0,0.0,0.0,0.0,0.0,1.67814032349832E+09,0.0,2023-03-06 14:05:23.498
80.0,-3660.3440237455400,-7664.100249302420,9725.601640415390,-14136.114911569900,23626.509145082100,0.0,0.0,0.0,0.0,0.0,0.0,192.0,0.0,0.0,0.0,0.0,0.0,0.0,0.0,0.0,0.0,1.67814032349833E+09,0.0,2023-03-06 14:05:23.498
81.0,-3662.1992185353300,-7666.268368514580,9728.64147766131,-14121.496870696200,23636.43331962030,0.0,0.0,0.0,0.0,0.0,0.0,192.0,0.0,0.0,0.0,0.0,0.0,0.0,0.0,0.0,0.0,1.67814032349834E+09,0.0,2023-03-06 14:05:23.498
0.0,0.0,0.0,0.0,0.0,0.0,0.0,0.0,0.0,0.0,0.0,0.0,192.0,0.0,0.0,0.0,0.0,0.0,0.0,0.0,0.0,0.0,1.67814032357675E+09,0.0,2023-03-06 14:05:23.576
1.0,-1203.9990668295700,-4031.762961359380,10495.686292134100,-13982.223150995200,21638.38853101590,0.0,0.0,0.0,0.398,-0.406,-0.866,192.0,12.0,112.0,243.0,80.0,228.0,240.0,0.0,0.0,0.0,1.6781403235929E+09,0.0,2023-03-06 14:05:23.592
2.0,-1205.8989651082700,-4032.075885781750,10496.222734001000,-13980.256197483100,21641.04838860610,0.0,0.0,0.0,0.398,-0.406,-0.866,192.0,0.0,0.0,0.0,0.0,0.0,0.0,0.0,0.0,0.0,1.67814032359588E+09,0.0,2023-03-06 14:05:23.595
3.0,-1199.61812491633,-4028.678420624550,10519.490899979000,-13981.306729472500,21647.552746242600,0.0,0.0,0.0,0.398,-0.406,-0.866,192.0,0.0,0.0,0.0,0.0,0.0,0.0,0.0,0.0,0.0,1.67814032359891E+09,0.0,2023-03-06 14:05:23.598
4.0,-1199.5510696829600,-4022.12935949914,10514.260591776400,-13980.256197483100,21637.785033915600,0.0,0.0,0.0,0.398,-0.406,-0.866,192.0,0.0,0.0,0.0,0.0,0.0,0.0,0.0,0.0,0.0,1.67814032360389E+09,0.0,2023-03-06 14:05:23.603
5.0,-1203.2167557736300,-4022.5093391548800,10514.908792365600,-13979.42918293820,21641.316609539600,0.0,0.0,0.0,0.398,-0.406,-0.866,192.0,0.0,0.0,0.0,0.0,0.0,0.0,0.0,0.0,0.0,1.67814032360793E+09,0.0,2023-03-06 14:05:23.607
6.0,-1205.6754476637200,-4026.197376990010,10510.281981263400,-13982.96075856220,21634.6557896919,0.0,0.0,0.0,0.398,-0.406,-0.866,192.0,0.0,0.0,0.0,0.0,0.0,0.0,0.0,0.0,0.0,1.6781403236119E+09,0.0,2023-03-06 14:05:23.611
7.0,-1197.7405783820800,-4025.1468450006100,10529.325667539300,-13984.637139396300,21639.841394405500,0.0,0.0,0.0,0.398,-0.406,-0.866,192.0,0.0,0.0,0.0,0.0,0.0,0.0,0.0,0.0,0.0,1.67814032361698E+09,0.0,2023-03-06 14:05:23.616
8.0,-1199.036979560490,-4024.1186647556600,10516.920449366600,-13986.090002785900,21631.213621045800,0.0,0.0,0.0,0.41000000000000000,-0.436,-0.844,192.0,12.0,208.0,242.0,96.0,229.0,160.0,0.0,0.0,0.0,1.67814032361996E+09,0.0,2023-03-06 14:05:23.619
9.0,-1203.4626249626400,-4024.588051389220,10511.220754530500,-13983.00546205110,21628.173783799900,0.0,0.0,0.0,0.41000000000000000,-0.436,-0.844,192.0,0.0,0.0,0.0,0.0,0.0,0.0,0.0,0.0,0.0,1.678140323624E+09,0.0,2023-03-06 14:05:23.624
10.0,-1199.61812491633,-4025.2139002339700,10497.563838668300,-13983.832476595900,21619.411899973400,0.0,0.0,0.0,0.41000000000000000,-0.436,-0.844,192.0,0.0,0.0,0.0,0.0,0.0,0.0,0.0,0.0,0.0,1.67814032363003E+09,0.0,2023-03-06 14:05:23.630
11.0,-1192.7337876241000,-4025.3927141896100,10518.619181945200,-13985.441802196700,21630.721882667800,0.0,0.0,0.0,0.41000000000000000,-0.436,-0.844,192.0,0.0,0.0,0.0,0.0,0.0,0.0,0.0,0.0,0.0,1.67814032363303E+09,0.0,2023-03-06 14:05:23.633
12.0,-1193.2478777465700,-4019.804778075790,10515.22171678800,-13981.597302150400,21631.37008325700,0.0,0.0,0.0,0.41000000000000000,-0.436,-0.844,192.0,0.0,0.0,0.0,0.0,0.0,0.0,0.0,0.0,0.0,1.67814032363609E+09,0.0,2023-03-06 14:05:23.636
13.0,-1195.4159969587300,-4019.447150164500,10511.26545801940,-13983.05016554,21629.93957161180,0.0,0.0,0.0,0.41000000000000000,-0.436,-0.844,192.0,0.0,0.0,0.0,0.0,0.0,0.0,0.0,0.0,0.0,1.67814032363907E+09,0.0,2023-03-06 14:05:23.639
14.0,-1197.9193923377300,-4019.4918536534100,10496.222734001000,-13985.86648534140,21624.508097709200,0.0,0.0,0.0,0.41000000000000000,-0.436,-0.844,192.0,0.0,0.0,0.0,0.0,0.0,0.0,0.0,0.0,0.0,1.6781403236431E+09,0.0,2023-03-06 14:05:23.643
15.0,-1188.5987148998600,-4020.7211995984600,10511.108995808200,-13987.632273153300,21629.738405911700,0.0,0.0,0.0,0.41000000000000000,-0.436,-0.844,192.0,0.0,0.0,0.0,0.0,0.0,0.0,0.0,0.0,0.0,1.67814032364811E+09,0.0,2023-03-06 14:05:23.648
16.0,-1191.973828312620,-4022.7552083438900,10512.427748731100,-13987.29699698650,21628.7549291557,0.0,0.0,0.0,0.41000000000000000,-0.436,-0.844,192.0,0.0,0.0,0.0,0.0,0.0,0.0,0.0,0.0,0.0,1.67814032365211E+09,0.0,2023-03-06 14:05:23.652
17.0,-1197.070026048430,-4025.4150659340700,10510.17022254110,-13988.1016597869,21626.340940754500,0.0,0.0,0.0,0.41000000000000000,-0.436,-0.844,192.0,0.0,0.0,0.0,0.0,0.0,0.0,0.0,0.0,0.0,1.67814032365613E+09,0.0,2023-03-06 14:05:23.656
18.0,-1204.1778807852100,-4029.170159002560,10497.563838668300,-13990.828572610400,21621.42355697440,0.0,0.0,0.0,0.42,-0.46,-0.836,192.0,13.0,32.0,241.0,160.0,229.0,224.0,0.0,0.0,0.0,1.67814032366019E+09,0.0,2023-03-06 14:05:23.660
19.0,-1206.1448342972800,-4032.7911416043200,10508.739710896000,-13995.209514523700,21622.38468198590,0.0,0.0,0.0,0.42,-0.46,-0.836,192.0,0.0,0.0,0.0,0.0,0.0,0.0,0.0,0.0,0.0,1.67814032366318E+09,0.0,2023-03-06 14:05:23.663
20.0,-1201.294505750480,-4030.6677258810700,10516.518117966400,-13997.221171524700,21622.719958152800,0.0,0.0,0.0,0.42,-0.46,-0.836,192.0,0.0,0.0,0.0,0.0,0.0,0.0,0.0,0.0,0.0,1.67814032366725E+09,0.0,2023-03-06 14:05:23.667
21.0,-1205.7872063859900,-4028.2760892243500,10508.851469618300,-13993.734299389600,21615.545048182600,0.0,0.0,0.0,0.42,-0.46,-0.836,192.0,0.0,0.0,0.0,0.0,0.0,0.0,0.0,0.0,0.0,1.67814032367121E+09,0.0,2023-03-06 14:05:23.671
22.0,-1211.2186802886300,-4027.583185146240,10499.08375729130,-13991.744994133100,21609.934760324300,0.0,0.0,0.0,0.42,-0.46,-0.836,192.0,0.0,0.0,0.0,0.0,0.0,0.0,0.0,0.0,0.0,1.67814032367523E+09,0.0,2023-03-06 14:05:23.675
23.0,-1202.233279017600,-4030.108932269690,10502.145946281700,-13992.348491233400,21611.767603369700,0.0,0.0,0.0,0.42,-0.46,-0.836,192.0,0.0,0.0,0.0,0.0,0.0,0.0,0.0,0.0,0.0,1.67814032368028E+09,0.0,2023-03-06 14:05:23.680
24.0,-1194.6560376472500,-4030.0418770363200,10517.345132511300,-13988.883970842800,21620.99887382970,0.0,0.0,0.0,0.42,-0.46,-0.836,192.0,0.0,0.0,0.0,0.0,0.0,0.0,0.0,0.0,0.0,1.67814032368428E+09,0.0,2023-03-06 14:05:23.684
25.0,-1198.7017033936600,-4027.22555723495,10509.74553939650,-13990.15802027680,21617.109670294500,0.0,0.0,0.0,0.42,-0.46,-0.836,192.0,0.0,0.0,0.0,0.0,0.0,0.0,0.0,0.0,0.0,1.67814032368828E+09,0.0,2023-03-06 14:05:23.688
26.0,-1200.2216220166200,-4027.136150257130,10501.229524759,-13992.214380766700,21610.42649870240,0.0,0.0,0.0,0.42,-0.46,-0.836,192.0,0.0,0.0,0.0,0.0,0.0,0.0,0.0,0.0,0.0,1.67814032369136E+09,0.0,2023-03-06 14:05:23.691
27.0,-1199.61812491633,-4026.4432461790100,10494.881629333700,-13987.185238264200,21612.974597570300,0.0,0.0,0.0,0.42,-0.46,-0.836,192.0,0.0,0.0,0.0,0.0,0.0,0.0,0.0,0.0,0.0,1.67814032369534E+09,0.0,2023-03-06 14:05:23.695
28.0,-1195.1254242808100,-4024.0739612667500,10516.339304010800,-13988.369880720400,21622.630551174900,0.0,0.0,0.0,0.418,-0.464,-0.8320000000000000,192.0,13.0,16.0,241.0,128.0,230.0,0.0,0.0,0.0,0.0,1.67814032369935E+09,0.0,2023-03-06 14:05:23.699
29.0,-1195.7736248700200,-4022.5316908993400,10511.421920230600,-13988.883970842800,21614.785088871100,0.0,0.0,0.0,0.418,-0.464,-0.8320000000000000,192.0,0.0,0.0,0.0,0.0,0.0,0.0,0.0,0.0,0.0,1.67814032370336E+09,0.0,2023-03-06 14:05:23.703
30.0,-1196.3100667369400,-4023.068132766260,10509.276152762900,-13988.168715020300,21615.455641204800,0.0,0.0,0.0,0.418,-0.464,-0.8320000000000000,192.0,0.0,0.0,0.0,0.0,0.0,0.0,0.0,0.0,0.0,1.67814032370737E+09,0.0,2023-03-06 14:05:23.707
31.0,-1201.1603952837500,-4024.4762926669500,10498.524963679900,-13985.732374874600,21618.070795306100,0.0,0.0,0.0,0.418,-0.464,-0.8320000000000000,192.0,0.0,0.0,0.0,0.0,0.0,0.0,0.0,0.0,0.0,1.67814032371241E+09,0.0,2023-03-06 14:05:23.712
32.0,-1196.6900463926800,-4023.93985080002,10517.70276042260,-13980.703232372200,21634.678141436400,0.0,0.0,0.0,0.418,-0.464,-0.8320000000000000,192.0,0.0,0.0,0.0,0.0,0.0,0.0,0.0,0.0,0.0,1.67814032371641E+09,0.0,2023-03-06 14:05:23.716
33.0,-1199.461662705140,-4022.1517112436000,10508.247972518000,-13977.082249770400,21627.257362277200,0.0,0.0,0.0,0.418,-0.464,-0.8320000000000000,192.0,0.0,0.0,0.0,0.0,0.0,0.0,0.0,0.0,0.0,1.67814032371943E+09,0.0,2023-03-06 14:05:23.719
34.0,-1200.1769185277100,-4024.1410165001200,10507.622123673200,-13975.182351491700,21628.307894266600,0.0,0.0,0.0,0.418,-0.464,-0.8320000000000000,192.0,0.0,0.0,0.0,0.0,0.0,0.0,0.0,0.0,0.0,1.67814032372348E+09,0.0,2023-03-06 14:05:23.723
35.0,-1201.942706339680,-4026.197376990010,10497.295617734900,-13979.876217827300,21623.14464129740,0.0,0.0,0.0,0.418,-0.464,-0.8320000000000000,192.0,0.0,0.0,0.0,0.0,0.0,0.0,0.0,0.0,0.0,1.67814032372745E+09,0.0,2023-03-06 14:05:23.727
36.0,-1194.432520202700,-4024.7892170893200,10519.356789512300,-13982.983110306600,21628.28554252210,0.0,0.0,0.0,0.418,-0.464,-0.8320000000000000,192.0,0.0,0.0,0.0,0.0,0.0,0.0,0.0,0.0,0.0,1.67814032373148E+09,0.0,2023-03-06 14:05:23.731
37.0,-1196.5782876704100,-4020.8776618096400,10515.668751677100,-13981.060860283500,21628.553763455600,0.0,0.0,0.0,0.418,-0.464,-0.8320000000000000,192.0,0.0,0.0,0.0,0.0,0.0,0.0,0.0,0.0,0.0,1.67814032373554E+09,0.0,2023-03-06 14:05:23.735
38.0,-1197.1817847707000,-4019.4024466755900,10510.483146963500,-13979.987976549600,21632.599429202000,0.0,0.0,0.0,0.418,-0.468,-0.8240000000000000,192.0,13.0,16.0,241.0,96.0,230.0,64.0,0.0,0.0,0.0,1.67814032374052E+09,0.0,2023-03-06 14:05:23.740
39.0,-1193.784319613500,-4019.2459844644100,10496.69212063460,-13983.251331240100,21626.631513432400,0.0,0.0,0.0,0.418,-0.468,-0.8240000000000000,192.0,0.0,0.0,0.0,0.0,0.0,0.0,0.0,0.0,0.0,1.67814032374454E+09,0.0,2023-03-06 14:05:23.744
40.0,-1192.6890841351800,-4021.2129379764700,10513.925315609600,-13985.95589231920,21631.772414657200,0.0,0.0,0.0,0.418,-0.468,-0.8240000000000000,192.0,0.0,0.0,0.0,0.0,0.0,0.0,0.0,0.0,0.0,1.67814032374774E+09,0.0,2023-03-06 14:05:23.747
41.0,-1192.554973668450,-4019.7600745868800,10518.976809856500,-13982.804296351000,21628.799632644600,0.0,0.0,0.0,0.418,-0.468,-0.8240000000000000,192.0,0.0,0.0,0.0,0.0,0.0,0.0,0.0,0.0,0.0,1.67814032375155E+09,0.0,2023-03-06 14:05:23.751
42.0,-1188.8222323444200,-4019.000115275400,10513.858260376200,-13981.82081959500,21624.17282154240,0.0,0.0,0.0,0.418,-0.468,-0.8240000000000000,192.0,0.0,0.0,0.0,0.0,0.0,0.0,0.0,0.0,0.0,1.6781403237556E+09,0.0,2023-03-06 14:05:23.755
43.0,-1192.3985114572700,-4019.8718333091500,10496.781527612400,-13981.709060872700,21621.75883314120,0.0,0.0,0.0,0.418,-0.468,-0.8240000000000000,192.0,0.0,0.0,0.0,0.0,0.0,0.0,0.0,0.0,0.0,1.67814032375962E+09,0.0,2023-03-06 14:05:23.759
44.0,-1192.5996771573600,-4020.7211995984600,10504.135251538200,-13983.452496940200,21625.37981574300,0.0,0.0,0.0,0.418,-0.468,-0.8240000000000000,192.0,0.0,0.0,0.0,0.0,0.0,0.0,0.0,0.0,0.0,1.67814032376364E+09,0.0,2023-03-06 14:05:23.763
45.0,-1191.3032759789600,-4019.804778075790,10513.455928976100,-13986.693499886200,21626.89973436590,0.0,0.0,0.0,0.418,-0.468,-0.8240000000000000,192.0,0.0,0.0,0.0,0.0,0.0,0.0,0.0,0.0,0.0,1.67814032376765E+09,0.0,2023-03-06 14:05:23.767
46.0,-1191.2585724900500,-4018.5754321307500,10507.286847506400,-13986.738203375100,21624.150469797900,0.0,0.0,0.0,0.418,-0.468,-0.8240000000000000,192.0,0.0,0.0,0.0,0.0,0.0,0.0,0.0,0.0,0.0,1.67814032377166E+09,0.0,2023-03-06 14:05:23.771
47.0,-1195.0807207919000,-4020.5647373872700,10498.770832868900,-13989.755688876600,21618.249609261700,0.0,0.0,0.0,0.418,-0.468,-0.8240000000000000,192.0,0.0,0.0,0.0,0.0,0.0,0.0,0.0,0.0,0.0,1.67814032377469E+09,0.0,2023-03-06 14:05:23.774
48.0,-1195.2818864920000,-4021.2799932098400,10501.855373603700,-13992.43789821120,21617.869629606000,0.0,0.0,0.0,0.42,-0.468,-0.8320000000000000,192.0,13.0,32.0,241.0,96.0,230.0,0.0,0.0,0.0,0.0,1.67814032377868E+09,0.0,2023-03-06 14:05:23.778
49.0,-1192.5102701795400,-4019.648315864600,10516.898097622200,-13992.19202902220,21620.350673240500,0.0,0.0,0.0,0.42,-0.468,-0.8320000000000000,192.0,0.0,0.0,0.0,0.0,0.0,0.0,0.0,0.0,0.0,1.67814032378375E+09,0.0,2023-03-06 14:05:23.783
50.0,-1197.8523371043600,-4019.424798420050,10507.08568180630,-13995.589494179400,21608.37013821250,0.0,0.0,0.0,0.42,-0.468,-0.8320000000000000,192.0,0.0,0.0,0.0,0.0,0.0,0.0,0.0,0.0,0.0,1.67814032378772E+09,0.0,2023-03-06 14:05:23.787
51.0,-1196.1536045257600,-4022.062304265770,10498.703777635500,-13997.109412802400,21598.222446229800,0.0,0.0,0.0,0.42,-0.468,-0.8320000000000000,192.0,0.0,0.0,0.0,0.0,0.0,0.0,0.0,0.0,0.0,1.67814032379177E+09,0.0,2023-03-06 14:05:23.791
52.0,-1195.974790570120,-4025.7056386119900,10492.869972332700,-13994.67307265680,21599.094164263500,0.0,0.0,0.0,0.42,-0.468,-0.8320000000000000,192.0,0.0,0.0,0.0,0.0,0.0,0.0,0.0,0.0,0.0,1.67814032379583E+09,0.0,2023-03-06 14:05:23.795
53.0,-1192.6667323907300,-4025.0797897672400,10514.908792365600,-13997.668206413800,21610.068870791100,0.0,0.0,0.0,0.42,-0.468,-0.8320000000000000,192.0,0.0,0.0,0.0,0.0,0.0,0.0,0.0,0.0,0.0,1.67814032379879E+09,0.0,2023-03-06 14:05:23.798
54.0,-1194.9242585807200,-4022.5987461327000,10508.449138218100,-14001.065671571000,21605.95614981130,0.0,0.0,0.0,0.42,-0.468,-0.8320000000000000,192.0,0.0,0.0,0.0,0.0,0.0,0.0,0.0,0.0,0.0,1.67814032380291E+09,0.0,2023-03-06 14:05:23.802
55.0,-1194.8348516028900,-4021.5035106543900,10506.03514981690,-13998.24935176960,21606.783164356100,0.0,0.0,0.0,0.42,-0.468,-0.8320000000000000,192.0,0.0,0.0,0.0,0.0,0.0,0.0,0.0,0.0,0.0,1.67814032380688E+09,0.0,2023-03-06 14:05:23.806
56.0,-1199.819290616430,-4022.7775600883400,10497.139155523700,-13996.81884012450,21600.681138119800,0.0,0.0,0.0,0.42,-0.468,-0.8320000000000000,192.0,0.0,0.0,0.0,0.0,0.0,0.0,0.0,0.0,0.0,1.67814032381186E+09,0.0,2023-03-06 14:05:23.811
57.0,-1195.684217892200,-4021.391751932120,10520.407321501700,-13995.365976734900,21614.047481304100,0.0,0.0,0.0,0.42,-0.468,-0.8320000000000000,192.0,0.0,0.0,0.0,0.0,0.0,0.0,0.0,0.0,0.0,1.6781403238159E+09,0.0,2023-03-06 14:05:23.815
58.0,-1195.0136655585400,-4018.9330600420300,10515.758158654900,-13997.891723858300,21608.19132425680,0.0,0.0,0.0,0.42,-0.468,-0.8320000000000000,192.0,0.0,0.0,0.0,0.0,0.0,0.0,0.0,0.0,0.0,1.67814032381994E+09,0.0,2023-03-06 14:05:23.819
59.0,-1194.1866510136900,-4018.8883565531200,10517.054559833400,-14000.797450637500,21604.145658510400,0.0,0.0,0.0,0.424,-0.47400000000000000,-0.8320000000000000,192.0,13.0,64.0,241.0,48.0,230.0,0.0,0.0,0.0,0.0,1.67814032382397E+09,0.0,2023-03-06 14:05:23.823
60.0,-1202.099168550870,-4019.2236327199500,10507.063330061800,-14001.088023315400,21598.93770205230,0.0,0.0,0.0,0.424,-0.47400000000000000,-0.8320000000000000,192.0,0.0,0.0,0.0,0.0,0.0,0.0,0.0,0.0,0.0,1.67814032382692E+09,0.0,2023-03-06 14:05:23.826
61.0,-1192.8231946019200,-4018.1507489861000,10528.476301250000,-14002.518534960600,21612.996949314700,0.0,0.0,0.0,0.424,-0.47400000000000000,-0.8320000000000000,192.0,0.0,0.0,0.0,0.0,0.0,0.0,0.0,0.0,0.0,1.67814032383094E+09,0.0,2023-03-06 14:05:23.830
62.0,-1187.9281625662000,-4014.216841961960,10527.671638449600,-14001.602113437900,21612.818135359100,0.0,0.0,0.0,0.424,-0.47400000000000000,-0.8320000000000000,192.0,0.0,0.0,0.0,0.0,0.0,0.0,0.0,0.0,0.0,1.67814032383495E+09,0.0,2023-03-06 14:05:23.834
63.0,-1189.8727643338200,-4014.2838971953300,10524.050655847900,-14005.893648373300,21603.720975365800,0.0,0.0,0.0,0.424,-0.47400000000000000,-0.8320000000000000,192.0,0.0,0.0,0.0,0.0,0.0,0.0,0.0,0.0,0.0,1.67814032383899E+09,0.0,2023-03-06 14:05:23.838
64.0,-1192.9349533241900,-4017.03316176333,10508.516193451400,-14005.223096039700,21595.60729212850,0.0,0.0,0.0,0.424,-0.47400000000000000,-0.8320000000000000,192.0,0.0,0.0,0.0,0.0,0.0,0.0,0.0,0.0,0.0,1.678140323844E+09,0.0,2023-03-06 14:05:23.843
65.0,-1192.1302905238000,-4019.156577486580,10523.89419363670,-14002.742052405100,21607.18549575630,0.0,0.0,0.0,0.424,-0.47400000000000000,-0.8320000000000000,192.0,0.0,0.0,0.0,0.0,0.0,0.0,0.0,0.0,0.0,1.67814032384803E+09,0.0,2023-03-06 14:05:23.848
66.0,-1197.0923777928800,-4018.731894341930,10526.911679138100,-14004.664302428300,21606.067908533600,0.0,0.0,0.0,0.424,-0.47400000000000000,-0.8320000000000000,192.0,0.0,0.0,0.0,0.0,0.0,0.0,0.0,0.0,0.0,1.67814032385203E+09,0.0,2023-03-06 14:05:23.852
67.0,-1202.590906928890,-4017.770769330360,10523.625972703200,-14002.965569849700,21604.32447246610,0.0,0.0,0.0,0.424,-0.47400000000000000,-0.8320000000000000,192.0,0.0,0.0,0.0,0.0,0.0,0.0,0.0,0.0,0.0,1.6781403238551E+09,0.0,2023-03-06 14:05:23.855
68.0,-1199.4169592162300,-4018.195452475010,10510.304333007900,-14000.283360515000,21603.206885243300,0.0,0.0,0.0,0.424,-0.47400000000000000,-0.8320000000000000,192.0,0.0,0.0,0.0,0.0,0.0,0.0,0.0,0.0,0.0,1.67814032385904E+09,0.0,2023-03-06 14:05:23.859
69.0,-1188.263438733030,-4018.642487364110,10515.378178999200,-14000.596284937400,21610.761774869200,0.0,0.0,0.0,0.424,-0.466,-0.844,192.0,13.0,64.0,241.0,112.0,229.0,160.0,0.0,0.0,0.0,1.6781403238631E+09,0.0,2023-03-06 14:05:23.863
70.0,-1187.816403843930,-4017.3684379301600,10525.570574470800,-13994.471906956700,21616.595580172000,0.0,0.0,0.0,0.424,-0.466,-0.844,192.0,0.0,0.0,0.0,0.0,0.0,0.0,0.0,0.0,0.0,1.67814032386912E+09,0.0,2023-03-06 14:05:23.869
71.0,-1189.0904532778800,-4015.490891395910,10521.0331703464,-13990.739165632600,21612.84048710350,0.0,0.0,0.0,0.424,-0.466,-0.844,192.0,0.0,0.0,0.0,0.0,0.0,0.0,0.0,0.0,0.0,1.67814032387214E+09,0.0,2023-03-06 14:05:23.872
72.0,-1197.2488400040700,-4016.519071640860,10513.902963865200,-13994.807183123500,21610.98529231370,0.0,0.0,0.0,0.424,-0.466,-0.844,192.0,0.0,0.0,0.0,0.0,0.0,0.0,0.0,0.0,0.0,1.67814032387615E+09,0.0,2023-03-06 14:05:23.876
73.0,-1198.9028690937600,-4017.837824563720,10513.522984209400,-13995.81301162400,21619.85893486250,0.0,0.0,0.0,0.424,-0.466,-0.844,192.0,0.0,0.0,0.0,0.0,0.0,0.0,0.0,0.0,0.0,1.67814032388017E+09,0.0,2023-03-06 14:05:23.880
74.0,-1190.6103719008400,-4016.3626094296700,10528.833929161300,-13999.210476781200,21630.207792545300,0.0,0.0,0.0,0.424,-0.466,-0.844,192.0,0.0,0.0,0.0,0.0,0.0,0.0,0.0,0.0,0.0,1.67814032388322E+09,0.0,2023-03-06 14:05:23.883
75.0,-1189.6715986337200,-4012.942792528010,10521.390798257700,-13999.635159925800,21623.166993041900,0.0,0.0,0.0,0.424,-0.466,-0.844,192.0,0.0,0.0,0.0,0.0,0.0,0.0,0.0,0.0,0.0,1.6781403238872E+09,0.0,2023-03-06 14:05:23.887
76.0,-1189.3810259558000,-4011.1770047160400,10518.820347645300,-14000.149250048300,21619.47895520680,0.0,0.0,0.0,0.424,-0.466,-0.844,192.0,0.0,0.0,0.0,0.0,0.0,0.0,0.0,0.0,0.0,1.67814032389122E+09,0.0,2023-03-06 14:05:23.891
77.0,-1189.2245637446100,-4010.327638426740,10513.388873742700,-13998.606979680900,21617.690815650300,0.0,0.0,0.0,0.424,-0.466,-0.844,192.0,0.0,0.0,0.0,0.0,0.0,0.0,0.0,0.0,0.0,1.67814032389522E+09,0.0,2023-03-06 14:05:23.895
78.0,-1188.106976521850,-4009.03123724833,10533.170167585600,-14002.25031402710,21617.46729820580,0.0,0.0,0.0,0.424,-0.466,-0.844,192.0,0.0,0.0,0.0,0.0,0.0,0.0,0.0,0.0,0.0,1.67814032390144E+09,0.0,2023-03-06 14:05:23.901
79.0,-1188.4646044331300,-4006.8631180361700,10524.721208181500,-14000.328064004000,21608.928931823800,0.0,0.0,0.0,0.41400000000000000,-0.464,-0.844,192.0,12.0,240.0,241.0,128.0,229.0,160.0,0.0,0.0,0.0,1.67814032390431E+09,0.0,2023-03-06 14:05:23.904
80.0,-1188.6881218776800,-4009.008885503880,10520.27321103490,-14000.328064004000,21612.70637663680,0.0,0.0,0.0,0.41400000000000000,-0.464,-0.844,192.0,0.0,0.0,0.0,0.0,0.0,0.0,0.0,0.0,0.0,1.6781403239083E+09,0.0,2023-03-06 14:05:23.908
81.0,-1191.7950143569700,-4010.8864320381200,10508.136213795700,-14003.233790783100,21610.851181847,0.0,0.0,0.0,0.41400000000000000,-0.464,-0.844,192.0,0.0,0.0,0.0,0.0,0.0,0.0,0.0,0.0,0.0,1.67814032391129E+09,0.0,2023-03-06 14:05:23.911
82.0,-1191.4373864456900,-4011.199356460500,10528.610411716700,-14002.563238449500,21626.787975643600,0.0,0.0,0.0,0.41400000000000000,-0.464,-0.844,192.0,0.0,0.0,0.0,0.0,0.0,0.0,0.0,0.0,0.0,1.67814032391534E+09,0.0,2023-03-06 14:05:23.915
83.0,-1195.684217892200,-4010.260583193370,10520.027341845900,-14004.910171617300,21623.390510486400,0.0,0.0,0.0,0.41400000000000000,-0.464,-0.844,192.0,0.0,0.0,0.0,0.0,0.0,0.0,0.0,0.0,0.0,1.67814032391934E+09,0.0,2023-03-06 14:05:23.919
84.0,-1192.3091044794400,-4012.0263710053400,10515.065254576800,-14004.306674517000,21621.08828080750,0.0,0.0,0.0,0.41400000000000000,-0.464,-0.844,192.0,0.0,0.0,0.0,0.0,0.0,0.0,0.0,0.0,0.0,1.67814032392538E+09,0.0,2023-03-06 14:05:23.925
85.0,-1187.3246654659100,-4014.6415251066100,10504.51523119390,-14004.127860561400,21616.059138305100,0.0,0.0,0.0,0.41400000000000000,-0.464,-0.844,192.0,0.0,0.0,0.0,0.0,0.0,0.0,0.0,0.0,0.0,1.6781403239284E+09,0.0,2023-03-06 14:05:23.928
86.0,-1183.3460549528700,-4014.0156762618600,10523.961248870000,-14010.140479819800,21621.870591863500,0.0,0.0,0.0,0.41400000000000000,-0.464,-0.844,192.0,0.0,0.0,0.0,0.0,0.0,0.0,0.0,0.0,0.0,1.67814032393142E+09,0.0,2023-03-06 14:05:23.931
87.0,-1186.1847264986900,-4008.8524232926900,10519.401493001200,-14010.945142620200,21615.120365038000,0.0,0.0,0.0,0.41400000000000000,-0.464,-0.844,192.0,0.0,0.0,0.0,0.0,0.0,0.0,0.0,0.0,0.0,1.67814032393646E+09,0.0,2023-03-06 14:05:23.936
88.0,-1185.782395098500,-4010.3723419156500,10514.774681898900,-14013.135613576800,21609.018338801700,0.0,0.0,0.0,0.41400000000000000,-0.464,-0.844,192.0,0.0,0.0,0.0,0.0,0.0,0.0,0.0,0.0,0.0,1.67814032393943E+09,0.0,2023-03-06 14:05:23.939
89.0,-1192.0185318015300,-4011.802853560790,10500.581324169800,-14016.86835490090,21601.105821264500,0.0,0.0,0.0,0.42,-0.47600000000000000,-0.836,192.0,13.0,32.0,241.0,32.0,229.0,224.0,0.0,0.0,0.0,1.67814032394348E+09,0.0,2023-03-06 14:05:23.943
90.0,-1191.5044416790500,-4014.3062489397800,10516.518117966400,-14021.517517747600,21609.823001602100,0.0,0.0,0.0,0.42,-0.47600000000000000,-0.836,192.0,0.0,0.0,0.0,0.0,0.0,0.0,0.0,0.0,0.0,1.67814032394747E+09,0.0,2023-03-06 14:05:23.947
91.0,-1194.9019068362600,-4013.456882650480,10521.45785349110,-14020.44463401370,21613.823963859600,0.0,0.0,0.0,0.42,-0.47600000000000000,-0.836,192.0,0.0,0.0,0.0,0.0,0.0,0.0,0.0,0.0,0.0,1.67814032395149E+09,0.0,2023-03-06 14:05:23.951
92.0,-1201.3839127283000,-4014.574469873250,10514.953495854600,-14013.225020554700,21614.203943515300,0.0,0.0,0.0,0.42,-0.47600000000000000,-0.836,192.0,0.0,0.0,0.0,0.0,0.0,0.0,0.0,0.0,0.0,1.67814032395555E+09,0.0,2023-03-06 14:05:23.955
93.0,-1199.1934417716800,-4018.709542597480,10503.419995715600,-14013.448537999200,21607.38666145640,0.0,0.0,0.0,0.42,-0.47600000000000000,-0.836,192.0,0.0,0.0,0.0,0.0,0.0,0.0,0.0,0.0,0.0,1.67814032395953E+09,0.0,2023-03-06 14:05:23.959
94.0,-1194.231354502600,-4021.7940833323100,10513.0312458314,-14013.381482765900,21611.186458013800,0.0,0.0,0.0,0.42,-0.47600000000000000,-0.836,192.0,0.0,0.0,0.0,0.0,0.0,0.0,0.0,0.0,0.0,1.6781403239646E+09,0.0,2023-03-06 14:05:23.964
95.0,-1192.174994012710,-4021.011772276380,10522.061350591300,-14013.739110677100,21615.679158649300,0.0,0.0,0.0,0.42,-0.47600000000000000,-0.836,192.0,0.0,0.0,0.0,0.0,0.0,0.0,0.0,0.0,0.0,1.67814032396759E+09,0.0,2023-03-06 14:05:23.967
96.0,-1194.8572033473500,-4021.391751932120,10513.36652199820,-14016.823651412000,21610.247684746700,0.0,0.0,0.0,0.42,-0.47600000000000000,-0.836,192.0,0.0,0.0,0.0,0.0,0.0,0.0,0.0,0.0,0.0,1.67814032397057E+09,0.0,2023-03-06 14:05:23.970
97.0,-1193.4490434466700,-4020.4753304094500,10506.571591683800,-14018.38827352380,21602.916312565400,0.0,0.0,0.0,0.42,-0.47600000000000000,-0.836,192.0,0.0,0.0,0.0,0.0,0.0,0.0,0.0,0.0,0.0,1.67814032397564E+09,0.0,2023-03-06 14:05:23.975
98.0,-1190.1633370117400,-4019.4024466755900,10509.969056841000,-14013.470889743700,21607.341957967500,0.0,0.0,0.0,0.42,-0.47600000000000000,-0.836,192.0,0.0,0.0,0.0,0.0,0.0,0.0,0.0,0.0,0.0,1.67814032397962E+09,0.0,2023-03-06 14:05:23.979
99.0,-1185.2459532315700,-4017.837824563720,10530.51030999550,-14011.01219785360,21620.976522085300,0.0,0.0,0.0,0.42,-0.47200000000000000,-0.8300000000000000,192.0,13.0,32.0,241.0,64.0,230.0,16.0,0.0,0.0,0.0,1.67814032398364E+09,0.0,2023-03-06 14:05:23.983
100.0,-1187.0117410435400,-4016.0496850073000,10522.038998846900,-14010.453404242200,21616.684987149800,0.0,0.0,0.0,0.42,-0.47200000000000000,-0.8300000000000000,192.0,0.0,0.0,0.0,0.0,0.0,0.0,0.0,0.0,0.0,1.67814032398768E+09,0.0,2023-03-06 14:05:23.987
101.0,-1189.9621713116400,-4015.289725695820,10517.389836000200,-14012.666226943300,21617.914333094900,0.0,0.0,0.0,0.42,-0.47200000000000000,-0.8300000000000000,192.0,0.0,0.0,0.0,0.0,0.0,0.0,0.0,0.0,0.0,1.67814032399171E+09,0.0,2023-03-06 14:05:23.991
102.0,-1193.5160986800300,-4014.574469873250,10510.326684752300,-14013.716758932700,21617.46729820580,0.0,0.0,0.0,0.42,-0.47200000000000000,-0.8300000000000000,192.0,0.0,0.0,0.0,0.0,0.0,0.0,0.0,0.0,0.0,1.67814032399574E+09,0.0,2023-03-06 14:05:23.995
103.0,-1191.7279591236100,-4014.5297663843400,10529.526833239400,-14008.44174724120,21627.14560355490,0.0,0.0,0.0,0.42,-0.47200000000000000,-0.8300000000000000,192.0,0.0,0.0,0.0,0.0,0.0,0.0,0.0,0.0,0.0,1.67814032399872E+09,0.0,2023-03-06 14:05:23.998
104.0,-1196.0194940590300,-4015.6250018626500,10520.206155801600,-14004.127860561400,21622.585847686000,0.0,0.0,0.0,0.42,-0.47200000000000000,-0.8300000000000000,192.0,0.0,0.0,0.0,0.0,0.0,0.0,0.0,0.0,0.0,1.67814032400275E+09,0.0,2023-03-06 14:05:24.002
105.0,-1195.259534747550,-4017.457844907980,10518.0827400783,-14004.910171617300,21626.29623726560,0.0,0.0,0.0,0.42,-0.47200000000000000,-0.8300000000000000,192.0,0.0,0.0,0.0,0.0,0.0,0.0,0.0,0.0,0.0,1.67814032400776E+09,0.0,2023-03-06 14:05:24.007
106.0,-1192.5996771573600,-4019.290687953320,10505.699873650100,-14004.977226850700,21629.738405911700,0.0,0.0,0.0,0.42,-0.47200000000000000,-0.8300000000000000,192.0,0.0,0.0,0.0,0.0,0.0,0.0,0.0,0.0,0.0,1.67814032401179E+09,0.0,2023-03-06 14:05:24.011
107.0,-1187.972866055120,-4018.9107082975800,10525.056484348400,-14005.334854761900,21637.069778093100,0.0,0.0,0.0,0.42,-0.47200000000000000,-0.8300000000000000,192.0,0.0,0.0,0.0,0.0,0.0,0.0,0.0,0.0,0.0,1.67814032401591E+09,0.0,2023-03-06 14:05:24.015
108.0,-1187.1458515102700,-4015.356780929180,10517.70276042260,-14004.709005917200,21626.407995987900,0.0,0.0,0.0,0.42,-0.47200000000000000,-0.8300000000000000,192.0,0.0,0.0,0.0,0.0,0.0,0.0,0.0,0.0,0.0,1.67814032401892E+09,0.0,2023-03-06 14:05:24.018
109.0,-1186.5200026655200,-4016.742589085410,10514.506460965500,-14008.598209452400,21621.155336040900,0.0,0.0,0.0,0.42,-0.47400000000000000,-0.8260000000000000,192.0,13.0,32.0,241.0,48.0,230.0,48.0,0.0,0.0,0.0,1.6781403240229E+09,0.0,2023-03-06 14:05:24.022
110.0,-1191.4820899346000,-4016.8543478076900,10502.637684659700,-14008.48645073010,21614.695681893300,0.0,0.0,0.0,0.42,-0.47400000000000000,-0.8260000000000000,192.0,0.0,0.0,0.0,0.0,0.0,0.0,0.0,0.0,0.0,1.67814032402687E+09,0.0,2023-03-06 14:05:24.026
111.0,-1186.587057898890,-4015.066208251260,10523.022475602900,-14006.921828618300,21625.916257609900,0.0,0.0,0.0,0.42,-0.47400000000000000,-0.8260000000000000,192.0,0.0,0.0,0.0,0.0,0.0,0.0,0.0,0.0,0.0,1.67814032403089E+09,0.0,2023-03-06 14:05:24.030
112.0,-1183.2789997195000,-4011.7134465829700,10522.106054080300,-14007.078290829500,21625.42451923190,0.0,0.0,0.0,0.42,-0.47400000000000000,-0.8260000000000000,192.0,0.0,0.0,0.0,0.0,0.0,0.0,0.0,0.0,0.0,1.67814032403589E+09,0.0,2023-03-06 14:05:24.035
113.0,-1185.8941538207700,-4012.2722401943500,10518.46271973400,-14008.329988519000,21621.624722674500,0.0,0.0,0.0,0.42,-0.47400000000000000,-0.8260000000000000,192.0,0.0,0.0,0.0,0.0,0.0,0.0,0.0,0.0,0.0,1.67814032403992E+09,0.0,2023-03-06 14:05:24.039
114.0,-1190.006874800550,-4014.0603797507700,10500.827193358800,-14004.597247194900,21613.153411525900,0.0,0.0,0.0,0.42,-0.47400000000000000,-0.8260000000000000,192.0,0.0,0.0,0.0,0.0,0.0,0.0,0.0,0.0,0.0,1.67814032404392E+09,0.0,2023-03-06 14:05:24.043
115.0,-1189.8951160782700,-4013.523937883850,10515.333475510300,-14004.843116383900,21619.56836218460,0.0,0.0,0.0,0.42,-0.47400000000000000,-0.8260000000000000,192.0,0.0,0.0,0.0,0.0,0.0,0.0,0.0,0.0,0.0,1.67814032404692E+09,0.0,2023-03-06 14:05:24.046
116.0,-1191.9067730792500,-4013.523937883850,10519.401493001200,-14012.375654265400,21621.669426163400,0.0,0.0,0.0,0.42,-0.47400000000000000,-0.8260000000000000,192.0,0.0,0.0,0.0,0.0,0.0,0.0,0.0,0.0,0.0,1.67814032405098E+09,0.0,2023-03-06 14:05:24.050
117.0,-1186.1847264986900,-4013.836862306220,10514.439405732100,-14018.969418879700,21616.17089702740,0.0,0.0,0.0,0.42,-0.47400000000000000,-0.8260000000000000,192.0,0.0,0.0,0.0,0.0,0.0,0.0,0.0,0.0,0.0,1.67814032405498E+09,0.0,2023-03-06 14:05:24.054
118.0,-1190.6997788786600,-4014.9544495289900,10505.968094583500,-14021.092834602900,21607.677234134300,0.0,0.0,0.0,0.42,-0.47400000000000000,-0.8260000000000000,192.0,0.0,0.0,0.0,0.0,0.0,0.0,0.0,0.0,0.0,1.67814032405901E+09,0.0,2023-03-06 14:05:24.059
119.0,-1190.8338893453900,-4014.6191733621600,10514.551164454400,-14018.120052590400,21610.717071380300,0.0,0.0,0.0,0.422,-0.48,-0.8300000000000000,192.0,13.0,48.0,241.0,0.0,230.0,16.0,0.0,0.0,0.0,1.67814032406299E+09,0.0,2023-03-06 14:05:24.062
120.0,-1188.1293282663000,-4011.892260538610,10527.626934960700,-14015.996636867100,21614.226295259800,0.0,0.0,0.0,0.422,-0.48,-0.8300000000000000,192.0,0.0,0.0,0.0,0.0,0.0,0.0,0.0,0.0,0.0,1.67814032406705E+09,0.0,2023-03-06 14:05:24.067
121.0,-1187.6822933772000,-4010.998190760400,10521.100225579800,-14014.186145566200,21612.90754233690,0.0,0.0,0.0,0.422,-0.48,-0.8300000000000000,192.0,0.0,0.0,0.0,0.0,0.0,0.0,0.0,0.0,0.0,1.67814032407204E+09,0.0,2023-03-06 14:05:24.072
122.0,-1187.7940520994700,-4010.573507615750,10511.779548141900,-14012.398006009800,21617.6014086725,0.0,0.0,0.0,0.422,-0.48,-0.8300000000000000,192.0,0.0,0.0,0.0,0.0,0.0,0.0,0.0,0.0,0.0,1.67814032407511E+09,0.0,2023-03-06 14:05:24.075
123.0,-1188.5316596665000,-4011.8252053052400,10510.214926030000,-14011.302770531500,21623.546972697600,0.0,0.0,0.0,0.422,-0.48,-0.8300000000000000,192.0,0.0,0.0,0.0,0.0,0.0,0.0,0.0,0.0,0.0,1.67814032407907E+09,0.0,2023-03-06 14:05:24.079
124.0,-1183.4578136751400,-4009.7464930709000,10526.46464424900,-14010.028721097600,21636.108653081500,0.0,0.0,0.0,0.422,-0.48,-0.8300000000000000,192.0,0.0,0.0,0.0,0.0,0.0,0.0,0.0,0.0,0.0,1.67814032408315E+09,0.0,2023-03-06 14:05:24.083
125.0,-1186.6317613878000,-4008.807719803780,10515.668751677100,-14007.145346062800,21631.41478674590,0.0,0.0,0.0,0.422,-0.48,-0.8300000000000000,192.0,0.0,0.0,0.0,0.0,0.0,0.0,0.0,0.0,0.0,1.67814032408711E+09,0.0,2023-03-06 14:05:24.087
126.0,-1186.4082439432400,-4010.6629145935700,10510.013760329900,-14005.58072395100,21629.626647189500,0.0,0.0,0.0,0.422,-0.48,-0.8300000000000000,192.0,0.0,0.0,0.0,0.0,0.0,0.0,0.0,0.0,0.0,1.67814032409116E+09,0.0,2023-03-06 14:05:24.091
127.0,-1189.3810259558000,-4014.84269080671,10503.285885248900,-14006.273628029100,21630.096033823000,0.0,0.0,0.0,0.422,-0.48,-0.8300000000000000,192.0,0.0,0.0,0.0,0.0,0.0,0.0,0.0,0.0,0.0,1.67814032409515E+09,0.0,2023-03-06 14:05:24.095
128.0,-1184.4189386867200,-4017.3013826967900,10527.85045240530,-14005.133689061800,21647.03865612010,0.0,0.0,0.0,0.422,-0.48,-0.8300000000000000,192.0,0.0,0.0,0.0,0.0,0.0,0.0,0.0,0.0,0.0,1.67814032410018E+09,0.0,2023-03-06 14:05:24.100
129.0,-1184.0613107754400,-4014.418007662060,10521.435501746600,-14001.110375059900,21646.61397297550,0.0,0.0,0.0,0.42,-0.47000000000000000,-0.8320000000000000,192.0,13.0,32.0,241.0,80.0,230.0,0.0,0.0,0.0,0.0,1.67814032410317E+09,0.0,2023-03-06 14:05:24.103
130.0,-1185.0000840425600,-4015.6473536071000,10517.74746391150,-13997.824668625000,21643.931763640900,0.0,0.0,0.0,0.42,-0.47000000000000000,-0.8320000000000000,192.0,0.0,0.0,0.0,0.0,0.0,0.0,0.0,0.0,0.0,1.67814032410722E+09,0.0,2023-03-06 14:05:24.107
131.0,-1189.0904532778800,-4017.0555135077900,10503.777623626900,-13994.874238356900,21643.931763640900,0.0,0.0,0.0,0.42,-0.47000000000000000,-0.8320000000000000,192.0,0.0,0.0,0.0,0.0,0.0,0.0,0.0,0.0,0.0,1.67814032411124E+09,0.0,2023-03-06 14:05:24.111
132.0,-1184.910677064740,-4017.077865252240,10523.625972703200,-13991.990863322100,21661.120255127000,0.0,0.0,0.0,0.42,-0.47000000000000000,-0.8320000000000000,192.0,0.0,0.0,0.0,0.0,0.0,0.0,0.0,0.0,0.0,1.67814032411527E+09,0.0,2023-03-06 14:05:24.115
133.0,-1189.1575085112500,-4014.820339062260,10516.808690644300,-13992.974340078200,21652.671295722900,0.0,0.0,0.0,0.42,-0.47000000000000000,-0.8320000000000000,192.0,0.0,0.0,0.0,0.0,0.0,0.0,0.0,0.0,0.0,1.67814032411927E+09,0.0,2023-03-06 14:05:24.119
134.0,-1190.6997788786600,-4015.9602780294800,10515.22171678800,-14000.238657026100,21638.56734497160,0.0,0.0,0.0,0.42,-0.47000000000000000,-0.8320000000000000,192.0,0.0,0.0,0.0,0.0,0.0,0.0,0.0,0.0,0.0,1.67814032412331E+09,0.0,2023-03-06 14:05:24.123
135.0,-1195.1701277697200,-4015.5579466292800,10501.117766036700,-14001.020968082100,21636.622743204000,0.0,0.0,0.0,0.42,-0.47000000000000000,-0.8320000000000000,192.0,0.0,0.0,0.0,0.0,0.0,0.0,0.0,0.0,0.0,1.67814032412833E+09,0.0,2023-03-06 14:05:24.128
136.0,-1193.292581235480,-4016.6531821075900,10515.400530743700,-13998.875200614400,21647.932725898400,0.0,0.0,0.0,0.42,-0.47000000000000000,-0.8320000000000000,192.0,0.0,0.0,0.0,0.0,0.0,0.0,0.0,0.0,0.0,1.67814032413131E+09,0.0,2023-03-06 14:05:24.131
137.0,-1195.7289213811100,-4015.9602780294800,10508.98558008500,-14003.613770438900,21643.462377007300,0.0,0.0,0.0,0.42,-0.47000000000000000,-0.8320000000000000,192.0,0.0,0.0,0.0,0.0,0.0,0.0,0.0,0.0,0.0,1.67814032413435E+09,0.0,2023-03-06 14:05:24.134
138.0,-1191.2809242345000,-4017.03316176333,10507.80093762890,-14007.570029207500,21646.502214253200,0.0,0.0,0.0,0.42,-0.47000000000000000,-0.8320000000000000,192.0,0.0,0.0,0.0,0.0,0.0,0.0,0.0,0.0,0.0,1.67814032413934E+09,0.0,2023-03-06 14:05:24.139
139.0,-1192.264400990530,-4016.5414233853100,10500.380158469700,-14005.312503017500,21647.217470075800,0.0,0.0,0.0,0.42,-0.47000000000000000,-0.8320000000000000,192.0,0.0,0.0,0.0,0.0,0.0,0.0,0.0,0.0,0.0,1.67814032414336E+09,0.0,2023-03-06 14:05:24.143
140.0,-1189.6268951448100,-4018.3742664306500,10517.143966811200,-14007.480622229700,21650.27965906620,0.0,0.0,0.0,0.422,-0.47000000000000000,-0.834,192.0,13.0,48.0,241.0,80.0,229.0,240.0,0.0,0.0,0.0,1.6781403241474E+09,0.0,2023-03-06 14:05:24.147
141.0,-1188.4646044331300,-4016.876699552140,10526.531699482400,-14010.855735642400,21641.8083479176,0.0,0.0,0.0,0.422,-0.47000000000000000,-0.834,192.0,0.0,0.0,0.0,0.0,0.0,0.0,0.0,0.0,0.0,1.67814032415138E+09,0.0,2023-03-06 14:05:24.151
142.0,-1190.1409852672800,-4015.6250018626500,10521.256687791000,-14013.180317065800,21631.548897212600,0.0,0.0,0.0,0.422,-0.47000000000000000,-0.834,192.0,0.0,0.0,0.0,0.0,0.0,0.0,0.0,0.0,0.0,1.67814032415545E+09,0.0,2023-03-06 14:05:24.155
143.0,-1194.0301888025000,-4016.5414233853100,10509.0302835739,-14014.811994411000,21620.730652896200,0.0,0.0,0.0,0.422,-0.47000000000000000,-0.834,192.0,0.0,0.0,0.0,0.0,0.0,0.0,0.0,0.0,0.0,1.67814032415942E+09,0.0,2023-03-06 14:05:24.159
144.0,-1193.6278574023100,-4016.429664663040,10514.014722587400,-14014.342607777400,21629.693702422800,0.0,0.0,0.0,0.422,-0.47000000000000000,-0.834,192.0,0.0,0.0,0.0,0.0,0.0,0.0,0.0,0.0,0.0,1.67814032416245E+09,0.0,2023-03-06 14:05:24.162
145.0,-1185.0447875314700,-4014.2391937064200,10527.895155894200,-14014.074386844000,21641.67423745090,0.0,0.0,0.0,0.422,-0.47000000000000000,-0.834,192.0,0.0,0.0,0.0,0.0,0.0,0.0,0.0,0.0,0.0,1.67814032416746E+09,0.0,2023-03-06 14:05:24.167
146.0,-1185.715339865130,-4013.546289628300,10520.384969757200,-14015.34843627790,21637.069778093100,0.0,0.0,0.0,0.422,-0.47000000000000000,-0.834,192.0,0.0,0.0,0.0,0.0,0.0,0.0,0.0,0.0,0.0,1.67814032417147E+09,0.0,2023-03-06 14:05:24.171
147.0,-1196.2206597591200,-4016.1167402406600,10516.182841799600,-14015.214325811200,21641.249554306200,0.0,0.0,0.0,0.422,-0.47000000000000000,-0.834,192.0,0.0,0.0,0.0,0.0,0.0,0.0,0.0,0.0,0.0,1.67814032417549E+09,0.0,2023-03-06 14:05:24.175
148.0,-1203.9990668295700,-4019.9165367980600,10518.038036589400,-14013.381482765900,21646.122234597500,0.0,0.0,0.0,0.422,-0.47000000000000000,-0.834,192.0,0.0,0.0,0.0,0.0,0.0,0.0,0.0,0.0,0.0,1.67814032417954E+09,0.0,2023-03-06 14:05:24.179
149.0,-1190.3197992229200,-4017.7260658414400,10537.998144388000,-14010.900439131300,21658.303935325600,0.0,0.0,0.0,0.422,-0.47000000000000000,-0.834,192.0,0.0,0.0,0.0,0.0,0.0,0.0,0.0,0.0,0.0,1.67814032418356E+09,0.0,2023-03-06 14:05:24.183
150.0,-1188.039921288480,-4016.6308303631300,10526.956382627100,-14007.972360607700,21654.05710387910,0.0,0.0,0.0,0.43,-0.468,-0.838,192.0,13.0,112.0,241.0,96.0,229.0,208.0,0.0,0.0,0.0,1.67814032418756E+09,0.0,2023-03-06 14:05:24.187
151.0,-1181.6920258631700,-4013.1216064836500,10524.162414570100,-14005.848944884400,21653.900641667900,0.0,0.0,0.0,0.43,-0.468,-0.838,192.0,0.0,0.0,0.0,0.0,0.0,0.0,0.0,0.0,0.0,1.67814032419058E+09,0.0,2023-03-06 14:05:24.190
152.0,-1182.0273020300000,-4013.2780686948400,10517.635705189200,-14002.987921594100,21650.592583488500,0.0,0.0,0.0,0.43,-0.468,-0.838,192.0,0.0,0.0,0.0,0.0,0.0,0.0,0.0,0.0,0.0,1.6781403241946E+09,0.0,2023-03-06 14:05:24.194
153.0,-1178.2498572170600,-4012.6745715945500,10536.679391465100,-14000.216305281700,21662.260194094200,0.0,0.0,0.0,0.43,-0.468,-0.838,192.0,0.0,0.0,0.0,0.0,0.0,0.0,0.0,0.0,0.0,1.67814032419861E+09,0.0,2023-03-06 14:05:24.198
154.0,-1185.6929881206700,-4012.1157779831600,10524.56474597030,-14001.669168671300,21658.52745277020,0.0,0.0,0.0,0.43,-0.468,-0.838,192.0,0.0,0.0,0.0,0.0,0.0,0.0,0.0,0.0,0.0,1.67814032420365E+09,0.0,2023-03-06 14:05:24.203
155.0,-1189.8280608449100,-4011.646391349600,10518.574478456300,-14006.497145473600,21650.883156166500,0.0,0.0,0.0,0.43,-0.468,-0.838,192.0,0.0,0.0,0.0,0.0,0.0,0.0,0.0,0.0,0.0,1.67814032420767E+09,0.0,2023-03-06 14:05:24.207
156.0,-1192.5102701795400,-4010.864080293670,10505.610466672200,-14001.780927393500,21641.987161873200,0.0,0.0,0.0,0.43,-0.468,-0.838,192.0,0.0,0.0,0.0,0.0,0.0,0.0,0.0,0.0,0.0,1.67814032421166E+09,0.0,2023-03-06 14:05:24.211
157.0,-1183.5695723974200,-4009.992362259910,10529.124501839200,-14002.272665771600,21651.33019105560,0.0,0.0,0.0,0.43,-0.468,-0.838,192.0,0.0,0.0,0.0,0.0,0.0,0.0,0.0,0.0,0.0,1.6781403242147E+09,0.0,2023-03-06 14:05:24.214
158.0,-1183.1895927416800,-4008.4500918924900,10521.189632557600,-13996.148287790800,21649.966734643800,0.0,0.0,0.0,0.43,-0.468,-0.838,192.0,0.0,0.0,0.0,0.0,0.0,0.0,0.0,0.0,0.0,1.67814032422069E+09,0.0,2023-03-06 14:05:24.220
159.0,-1186.4082439432400,-4009.925307026540,10514.551164454400,-13990.515648188100,21649.698513710300,0.0,0.0,0.0,0.43,-0.468,-0.838,192.0,0.0,0.0,0.0,0.0,0.0,0.0,0.0,0.0,0.0,1.67814032422371E+09,0.0,2023-03-06 14:05:24.223
160.0,-1193.0690637909300,-4014.3286006842400,10499.128460780200,-13991.342662732900,21646.23399331980,0.0,0.0,0.0,0.424,-0.468,-0.8320000000000000,192.0,13.0,64.0,241.0,96.0,230.0,0.0,0.0,0.0,0.0,1.67814032422675E+09,0.0,2023-03-06 14:05:24.226
161.0,-1192.3314562239,-4015.446187907000,10520.809652901800,-13992.773174378100,21660.539109771100,0.0,0.0,0.0,0.424,-0.468,-0.8320000000000000,192.0,0.0,0.0,0.0,0.0,0.0,0.0,0.0,0.0,0.0,1.67814032423181E+09,0.0,2023-03-06 14:05:24.231
162.0,-1194.6783893917100,-4014.552118128790,10523.84949014780,-13995.187162779200,21657.253403336200,0.0,0.0,0.0,0.424,-0.468,-0.8320000000000000,192.0,0.0,0.0,0.0,0.0,0.0,0.0,0.0,0.0,0.0,1.67814032423576E+09,0.0,2023-03-06 14:05:24.235
163.0,-1190.7891858564800,-4014.6191733621600,10518.194498800600,-13993.734299389600,21654.548842257100,0.0,0.0,0.0,0.424,-0.468,-0.8320000000000000,192.0,0.0,0.0,0.0,0.0,0.0,0.0,0.0,0.0,0.0,1.67814032423987E+09,0.0,2023-03-06 14:05:24.239
164.0,-1191.683255634700,-4016.183795474030,10502.928257337600,-13994.002520323100,21648.7597404432,0.0,0.0,0.0,0.424,-0.468,-0.8320000000000000,192.0,0.0,0.0,0.0,0.0,0.0,0.0,0.0,0.0,0.0,1.67814032424294E+09,0.0,2023-03-06 14:05:24.242
165.0,-1189.716302122630,-4018.6648391085700,10516.339304010800,-13996.461212213200,21651.33019105560,0.0,0.0,0.0,0.424,-0.468,-0.8320000000000000,192.0,0.0,0.0,0.0,0.0,0.0,0.0,0.0,0.0,0.0,1.67814032424687E+09,0.0,2023-03-06 14:05:24.246
166.0,-1189.5374881669900,-4016.8990512966000,10523.782434914400,-13997.444688969200,21650.90550791090,0.0,0.0,0.0,0.424,-0.468,-0.8320000000000000,192.0,0.0,0.0,0.0,0.0,0.0,0.0,0.0,0.0,0.0,1.67814032425086E+09,0.0,2023-03-06 14:05:24.250
167.0,-1187.4140724437300,-4015.133263484630,10520.429673246100,-14002.697348916200,21645.116406097000,0.0,0.0,0.0,0.424,-0.468,-0.8320000000000000,192.0,0.0,0.0,0.0,0.0,0.0,0.0,0.0,0.0,0.0,1.67814032425487E+09,0.0,2023-03-06 14:05:24.254
168.0,-1187.972866055120,-4012.294591938810,10514.282943520900,-14000.261008770600,21643.037693862600,0.0,0.0,0.0,0.424,-0.468,-0.8320000000000000,192.0,0.0,0.0,0.0,0.0,0.0,0.0,0.0,0.0,0.0,1.67814032425889E+09,0.0,2023-03-06 14:05:24.258
169.0,-1188.5763631554100,-4011.55698437178,10521.770777913400,-13999.925732603800,21647.955077642800,0.0,0.0,0.0,0.424,-0.468,-0.8320000000000000,192.0,0.0,0.0,0.0,0.0,0.0,0.0,0.0,0.0,0.0,1.67814032426398E+09,0.0,2023-03-06 14:05:24.263
170.0,-1190.0515782894600,-4011.512280882870,10536.858205420800,-14005.53602046200,21649.989086388200,0.0,0.0,0.0,0.422,-0.47400000000000000,-0.8260000000000000,192.0,13.0,48.0,241.0,48.0,230.0,48.0,0.0,0.0,0.0,1.67814032426792E+09,0.0,2023-03-06 14:05:24.267
171.0,-1195.0583690474500,-4011.3781704161400,10530.264440806400,-14005.401909995300,21639.729635683300,0.0,0.0,0.0,0.422,-0.47400000000000000,-0.8260000000000000,192.0,0.0,0.0,0.0,0.0,0.0,0.0,0.0,0.0,0.0,1.67814032427093E+09,0.0,2023-03-06 14:05:24.270
172.0,-1189.582191655900,-4012.3839989166300,10524.475338992500,-14000.596284937400,21635.728673425800,0.0,0.0,0.0,0.422,-0.47400000000000000,-0.8260000000000000,192.0,0.0,0.0,0.0,0.0,0.0,0.0,0.0,0.0,0.0,1.67814032427499E+09,0.0,2023-03-06 14:05:24.274
173.0,-1185.8047468429500,-4012.294591938810,10521.27903953540,-14002.898514616300,21633.873478636000,0.0,0.0,0.0,0.422,-0.47400000000000000,-0.8260000000000000,192.0,0.0,0.0,0.0,0.0,0.0,0.0,0.0,0.0,0.0,1.67814032427898E+09,0.0,2023-03-06 14:05:24.278
174.0,-1181.490860163080,-4010.4617488934700,10539.048676377400,-13999.992787837100,21647.731560198300,0.0,0.0,0.0,0.422,-0.47400000000000000,-0.8260000000000000,192.0,0.0,0.0,0.0,0.0,0.0,0.0,0.0,0.0,0.0,1.67814032428298E+09,0.0,2023-03-06 14:05:24.282
175.0,-1182.2508194745600,-4007.6901325810100,10530.957344884600,-13997.824668625000,21641.584830473000,0.0,0.0,0.0,0.422,-0.47400000000000000,-0.8260000000000000,192.0,0.0,0.0,0.0,0.0,0.0,0.0,0.0,0.0,0.0,1.67814032428701E+09,0.0,2023-03-06 14:05:24.287
176.0,-1183.681331119700,-4007.8465947922000,10525.503519237500,-14000.685691915200,21639.394359516400,0.0,0.0,0.0,0.422,-0.47400000000000000,-0.8260000000000000,192.0,0.0,0.0,0.0,0.0,0.0,0.0,0.0,0.0,0.0,1.67814032429207E+09,0.0,2023-03-06 14:05:24.292
177.0,-1187.0340927879900,-4007.4442633920000,10515.020551087900,-14002.58559019390,21639.126138583000,0.0,0.0,0.0,0.422,-0.47400000000000000,-0.8260000000000000,192.0,0.0,0.0,0.0,0.0,0.0,0.0,0.0,0.0,0.0,1.67814032429502E+09,0.0,2023-03-06 14:05:24.295
178.0,-1184.843621831370,-4006.907821525080,10537.685219965600,-14006.497145473600,21643.61883921850,0.0,0.0,0.0,0.422,-0.47400000000000000,-0.8260000000000000,192.0,0.0,0.0,0.0,0.0,0.0,0.0,0.0,0.0,0.0,1.67814032429915E+09,0.0,2023-03-06 14:05:24.299
179.0,-1186.1176712653200,-4004.8514610351900,10528.632763461200,-14008.15117456330,21636.890964137400,0.0,0.0,0.0,0.422,-0.47400000000000000,-0.8260000000000000,192.0,0.0,0.0,0.0,0.0,0.0,0.0,0.0,0.0,0.0,1.6781403243031E+09,0.0,2023-03-06 14:05:24.303
180.0,-1186.6094096433400,-4006.5725453582500,10524.922373881600,-14003.792584394500,21636.466280992800,0.0,0.0,0.0,0.426,-0.47800000000000000,-0.8280000000000000,192.0,13.0,80.0,241.0,16.0,230.0,32.0,0.0,0.0,0.0,1.67814032430711E+09,0.0,2023-03-06 14:05:24.307
181.0,-1191.2585724900500,-4007.3101529252700,10512.181879542100,-14003.859639627900,21633.51585072470,0.0,0.0,0.0,0.426,-0.47800000000000000,-0.8280000000000000,192.0,0.0,0.0,0.0,0.0,0.0,0.0,0.0,0.0,0.0,1.67814032431115E+09,0.0,2023-03-06 14:05:24.311
182.0,-1184.4412904311800,-4008.6959610815000,10536.455874020600,-14006.474793729200,21650.056141621600,0.0,0.0,0.0,0.426,-0.47800000000000000,-0.8280000000000000,192.0,0.0,0.0,0.0,0.0,0.0,0.0,0.0,0.0,0.0,1.67814032431515E+09,0.0,2023-03-06 14:05:24.315
183.0,-1187.592886399380,-4009.3441616707000,10534.779493186400,-13998.741090147600,21652.04544687810,0.0,0.0,0.0,0.426,-0.47800000000000000,-0.8280000000000000,192.0,0.0,0.0,0.0,0.0,0.0,0.0,0.0,0.0,0.0,1.67814032432016E+09,0.0,2023-03-06 14:05:24.320
184.0,-1194.2760579915100,-4013.479234394940,10529.415074517100,-13995.81301162400,21648.536222998600,0.0,0.0,0.0,0.426,-0.47800000000000000,-0.8280000000000000,192.0,0.0,0.0,0.0,0.0,0.0,0.0,0.0,0.0,0.0,1.67814032432319E+09,0.0,2023-03-06 14:05:24.323
185.0,-1194.2760579915100,-4016.2732024518500,10512.248934775500,-13996.01417732410,21640.780167672700,0.0,0.0,0.0,0.426,-0.47800000000000000,-0.8280000000000000,192.0,0.0,0.0,0.0,0.0,0.0,0.0,0.0,0.0,0.0,1.67814032432617E+09,0.0,2023-03-06 14:05:24.326
186.0,-1184.8883253202800,-4018.5530803862900,10530.532661739900,-13999.277532014600,21646.077531108600,0.0,0.0,0.0,0.426,-0.47800000000000000,-0.8280000000000000,192.0,0.0,0.0,0.0,0.0,0.0,0.0,0.0,0.0,0.0,1.67814032433022E+09,0.0,2023-03-06 14:05:24.330
187.0,-1184.7989183424600,-4017.2119757189700,10532.678429207600,-14003.122032060900,21643.61883921850,0.0,0.0,0.0,0.426,-0.47800000000000000,-0.8280000000000000,192.0,0.0,0.0,0.0,0.0,0.0,0.0,0.0,0.0,0.0,1.6781403243353E+09,0.0,2023-03-06 14:05:24.335
188.0,-1188.9786945556000,-4017.2790309523400,10526.41994076010,-14003.926694861300,21638.299124038100,0.0,0.0,0.0,0.426,-0.47800000000000000,-0.8280000000000000,192.0,0.0,0.0,0.0,0.0,0.0,0.0,0.0,0.0,0.0,1.67814032433936E+09,0.0,2023-03-06 14:05:24.339
189.0,-1192.3314562239,-4018.486025152930,10513.388873742700,-14004.843116383900,21634.432272247300,0.0,0.0,0.0,0.426,-0.47800000000000000,-0.8280000000000000,192.0,0.0,0.0,0.0,0.0,0.0,0.0,0.0,0.0,0.0,1.67814032434328E+09,0.0,2023-03-06 14:05:24.343
190.0,-1189.42572944471,-4021.0788275097400,10524.073007592300,-14010.453404242200,21639.774339172200,0.0,0.0,0.0,0.422,-0.47200000000000000,-0.8180000000000000,192.0,13.0,48.0,241.0,64.0,230.0,112.0,0.0,0.0,0.0,1.67814032434733E+09,0.0,2023-03-06 14:05:24.347
191.0,-1191.9961800570700,-4021.905842054590,10532.387856529700,-14012.375654265400,21639.43906300530,0.0,0.0,0.0,0.422,-0.47200000000000000,-0.8180000000000000,192.0,0.0,0.0,0.0,0.0,0.0,0.0,0.0,0.0,0.0,1.67814032435132E+09,0.0,2023-03-06 14:05:24.351
192.0,-1199.2157935161300,-4022.8893188106200,10527.537527982900,-14013.24737229910,21633.09116758000,0.0,0.0,0.0,0.422,-0.47200000000000000,-0.8180000000000000,192.0,0.0,0.0,0.0,0.0,0.0,0.0,0.0,0.0,0.0,1.6781403243543E+09,0.0,2023-03-06 14:05:24.354
193.0,-1203.6414389182900,-4023.8280920777400,10521.547260468900,-14013.58264846600,21624.99983608720,0.0,0.0,0.0,0.422,-0.47200000000000000,-0.8180000000000000,192.0,0.0,0.0,0.0,0.0,0.0,0.0,0.0,0.0,0.0,1.67814032435837E+09,0.0,2023-03-06 14:05:24.358
194.0,-1196.71239813714,-4024.2080717334800,10526.665809949100,-14012.353302520900,21626.117423310000,0.0,0.0,0.0,0.422,-0.47200000000000000,-0.8180000000000000,192.0,0.0,0.0,0.0,0.0,0.0,0.0,0.0,0.0,0.0,1.67814032436335E+09,0.0,2023-03-06 14:05:24.363
195.0,-1192.0185318015300,-4024.1857199890300,10541.306202567400,-14013.761462421600,21634.14169956940,0.0,0.0,0.0,0.422,-0.47200000000000000,-0.8180000000000000,192.0,0.0,0.0,0.0,0.0,0.0,0.0,0.0,0.0,0.0,1.67814032436736E+09,0.0,2023-03-06 14:05:24.367
196.0,-1195.61716265883,-4022.4869874104200,10528.923336139100,-14010.565162964500,21632.21944954630,0.0,0.0,0.0,0.422,-0.47200000000000000,-0.8180000000000000,192.0,0.0,0.0,0.0,0.0,0.0,0.0,0.0,0.0,0.0,1.67814032437139E+09,0.0,2023-03-06 14:05:24.371
197.0,-1198.4334824602000,-4022.8893188106200,10520.541431968400,-14008.598209452400,21631.593600701500,0.0,0.0,0.0,0.422,-0.47200000000000000,-0.8180000000000000,192.0,0.0,0.0,0.0,0.0,0.0,0.0,0.0,0.0,0.0,1.67814032437542E+09,0.0,2023-03-06 14:05:24.375
198.0,-1201.4956714505800,-4025.03508627833,10516.339304010800,-14011.839212398400,21627.61499018850,0.0,0.0,0.0,0.422,-0.47200000000000000,-0.8180000000000000,192.0,0.0,0.0,0.0,0.0,0.0,0.0,0.0,0.0,0.0,1.67814032437845E+09,0.0,2023-03-06 14:05:24.378
199.0,-1197.4500057041700,-4021.257641465380,10534.444217019600,-14009.626389697400,21639.23789730520,0.0,0.0,0.0,0.422,-0.47200000000000000,-0.8180000000000000,192.0,0.0,0.0,0.0,0.0,0.0,0.0,0.0,0.0,0.0,1.67814032438243E+09,0.0,2023-03-06 14:05:24.382
200.0,-1192.4432149461800,-4019.5589088867800,10524.721208181500,-14009.402872252800,21636.57803971510,0.0,0.0,0.0,0.428,-0.47200000000000000,-0.8180000000000000,192.0,13.0,96.0,241.0,64.0,230.0,112.0,0.0,0.0,0.0,1.67814032438647E+09,0.0,2023-03-06 14:05:24.386
201.0,-1191.7726626125200,-4021.347048443200,10520.474376735000,-14007.748843163100,21637.628571704500,0.0,0.0,0.0,0.428,-0.47200000000000000,-0.8180000000000000,192.0,0.0,0.0,0.0,0.0,0.0,0.0,0.0,0.0,0.0,1.6781403243905E+09,0.0,2023-03-06 14:05:24.390
202.0,-1196.6900463926800,-4021.2352897209300,10511.60073418630,-14004.217267539200,21636.622743204000,0.0,0.0,0.0,0.428,-0.47200000000000000,-0.8180000000000000,192.0,0.0,0.0,0.0,0.0,0.0,0.0,0.0,0.0,0.0,1.67814032439553E+09,0.0,2023-03-06 14:05:24.395
203.0,-1190.1633370117400,-4019.067170508760,10536.053542620400,-13999.76927039260,21649.810272432600,0.0,0.0,0.0,0.428,-0.47200000000000000,-0.8180000000000000,192.0,0.0,0.0,0.0,0.0,0.0,0.0,0.0,0.0,0.0,1.67814032439954E+09,0.0,2023-03-06 14:05:24.399
204.0,-1196.1759562702100,-4015.2673739513600,10530.644420462200,-13992.72847088920,21647.84331892050,0.0,0.0,0.0,0.428,-0.47200000000000000,-0.8180000000000000,192.0,0.0,0.0,0.0,0.0,0.0,0.0,0.0,0.0,0.0,1.67814032440355E+09,0.0,2023-03-06 14:05:24.403
205.0,-1200.6016016723600,-4017.122568741150,10529.102150094800,-13994.896590101300,21643.5070804962,0.0,0.0,0.0,0.428,-0.47200000000000000,-0.8180000000000000,192.0,0.0,0.0,0.0,0.0,0.0,0.0,0.0,0.0,0.0,1.67814032440658E+09,0.0,2023-03-06 14:05:24.406
206.0,-1198.232316760100,-4018.3742664306500,10516.026379588400,-13997.86937211390,21630.99010360120,0.0,0.0,0.0,0.428,-0.47200000000000000,-0.8180000000000000,192.0,0.0,0.0,0.0,0.0,0.0,0.0,0.0,0.0,0.0,1.67814032441059E+09,0.0,2023-03-06 14:05:24.410
207.0,-1188.4646044331300,-4020.095350753710,10538.646344977200,-13999.836325625900,21640.690760694800,0.0,0.0,0.0,0.428,-0.47200000000000000,-0.8180000000000000,192.0,0.0,0.0,0.0,0.0,0.0,0.0,0.0,0.0,0.0,1.6781403244146E+09,0.0,2023-03-06 14:05:24.414
208.0,-1190.073930033910,-4018.9554117864900,10535.114769353200,-14002.831459382900,21637.963847871300,0.0,0.0,0.0,0.428,-0.47200000000000000,-0.8180000000000000,192.0,0.0,0.0,0.0,0.0,0.0,0.0,0.0,0.0,0.0,1.67814032441863E+09,0.0,2023-03-06 14:05:24.418
209.0,-1189.6939503781700,-4019.8494815647000,10529.0350948614,-14002.540886705000,21636.645094948400,0.0,0.0,0.0,0.428,-0.47200000000000000,-0.8180000000000000,192.0,0.0,0.0,0.0,0.0,0.0,0.0,0.0,0.0,0.0,1.67814032442286E+09,0.0,2023-03-06 14:05:24.422
210.0,-1194.4101684582400,-4021.995249032410,10511.488975464000,-14007.547677463000,21628.397301244400,0.0,0.0,0.0,0.422,-0.47200000000000000,-0.8220000000000000,192.0,13.0,48.0,241.0,64.0,230.0,80.0,0.0,0.0,0.0,1.67814032442766E+09,0.0,2023-03-06 14:05:24.427
211.0,-1195.4159969587300,-4023.7163333554700,10526.039961104400,-14015.147270577800,21632.331208268500,0.0,0.0,0.0,0.422,-0.47200000000000000,-0.8220000000000000,192.0,0.0,0.0,0.0,0.0,0.0,0.0,0.0,0.0,0.0,1.6781403244317E+09,0.0,2023-03-06 14:05:24.431
212.0,-1195.3489417253700,-4020.2294612204400,10523.670676192100,-14011.72745367620,21635.23693504770,0.0,0.0,0.0,0.422,-0.47200000000000000,-0.8220000000000000,192.0,0.0,0.0,0.0,0.0,0.0,0.0,0.0,0.0,0.0,1.67814032443473E+09,0.0,2023-03-06 14:05:24.434
213.0,-1194.0748922914100,-4018.486025152930,10515.847565632800,-14012.263895543100,21627.65969367740,0.0,0.0,0.0,0.422,-0.47200000000000000,-0.8220000000000000,192.0,0.0,0.0,0.0,0.0,0.0,0.0,0.0,0.0,0.0,1.6781403244387E+09,0.0,2023-03-06 14:05:24.438
214.0,-1194.9242585807200,-4019.044818764310,10503.26353350440,-14009.91696237530,21623.36815874200,0.0,0.0,0.0,0.422,-0.47200000000000000,-0.8220000000000000,192.0,0.0,0.0,0.0,0.0,0.0,0.0,0.0,0.0,0.0,1.67814032444277E+09,0.0,2023-03-06 14:05:24.442
215.0,-1192.5102701795400,-4018.642487364110,10514.752330154500,-14007.301808274000,21633.158222813400,0.0,0.0,0.0,0.422,-0.47200000000000000,-0.8220000000000000,192.0,0.0,0.0,0.0,0.0,0.0,0.0,0.0,0.0,0.0,1.67814032444673E+09,0.0,2023-03-06 14:05:24.446
216.0,-1189.202212000160,-4014.5297663843400,10526.196423315600,-14007.882953629800,21636.399225759400,0.0,0.0,0.0,0.422,-0.47200000000000000,-0.8220000000000000,192.0,0.0,0.0,0.0,0.0,0.0,0.0,0.0,0.0,0.0,1.67814032445078E+09,0.0,2023-03-06 14:05:24.450
217.0,-1191.3256277234100,-4014.797987317800,10520.74259766850,-14011.123956575900,21624.262228520200,0.0,0.0,0.0,0.422,-0.47200000000000000,-0.8220000000000000,192.0,0.0,0.0,0.0,0.0,0.0,0.0,0.0,0.0,0.0,1.67814032445477E+09,0.0,2023-03-06 14:05:24.454
218.0,-1195.6618661477400,-4017.815472819270,10512.092472564300,-14012.129785076400,21622.94347559730,0.0,0.0,0.0,0.422,-0.47200000000000000,-0.8220000000000000,192.0,0.0,0.0,0.0,0.0,0.0,0.0,0.0,0.0,0.0,1.67814032445987E+09,0.0,2023-03-06 14:05:24.459
219.0,-1199.0593313049500,-4019.715371097970,10513.612391187200,-14010.475755986700,21628.15143205540,0.0,0.0,0.0,0.422,-0.47200000000000000,-0.8220000000000000,192.0,0.0,0.0,0.0,0.0,0.0,0.0,0.0,0.0,0.0,1.67814032446286E+09,0.0,2023-03-06 14:05:24.462
220.0,-1200.6016016723600,-4020.385923431630,10524.56474597030,-14012.398006009800,21631.504193723700,0.0,0.0,0.0,0.422,-0.47000000000000000,-0.8260000000000000,192.0,13.0,48.0,241.0,80.0,230.0,48.0,0.0,0.0,0.0,1.67814032446688E+09,0.0,2023-03-06 14:05:24.466
221.0,-1197.8523371043600,-4020.7882548318200,10514.774681898900,-14012.688578687700,21627.413824488400,0.0,0.0,0.0,0.422,-0.47000000000000000,-0.8260000000000000,192.0,0.0,0.0,0.0,0.0,0.0,0.0,0.0,0.0,0.0,1.67814032447086E+09,0.0,2023-03-06 14:05:24.470
222.0,-1201.585078428400,-4022.7775600883400,10504.850507360800,-14012.509764732100,21629.648998933900,0.0,0.0,0.0,0.422,-0.47000000000000000,-0.8260000000000000,192.0,0.0,0.0,0.0,0.0,0.0,0.0,0.0,0.0,0.0,1.67814032447491E+09,0.0,2023-03-06 14:05:24.474
223.0,-1206.681276164210,-4024.3421822002200,10495.775699111900,-14008.844078641400,21632.979408857800,0.0,0.0,0.0,0.422,-0.47000000000000000,-0.8260000000000000,192.0,0.0,0.0,0.0,0.0,0.0,0.0,0.0,0.0,0.0,1.67814032447888E+09,0.0,2023-03-06 14:05:24.478
224.0,-1198.813462115940,-4022.554042643790,10516.562821455300,-14003.189087294200,21646.524565997700,0.0,0.0,0.0,0.422,-0.47000000000000000,-0.8260000000000000,192.0,0.0,0.0,0.0,0.0,0.0,0.0,0.0,0.0,0.0,1.67814032448292E+09,0.0,2023-03-06 14:05:24.482
225.0,-1193.7396161245800,-4018.5307286418400,10513.970019098500,-14000.596284937400,21642.94828688480,0.0,0.0,0.0,0.422,-0.47000000000000000,-0.8260000000000000,192.0,0.0,0.0,0.0,0.0,0.0,0.0,0.0,0.0,0.0,1.67814032448793E+09,0.0,2023-03-06 14:05:24.487
226.0,-1199.1934417716800,-4018.798949575300,10514.88644062120,-13998.271703514100,21644.602315974500,0.0,0.0,0.0,0.422,-0.47000000000000000,-0.8260000000000000,192.0,0.0,0.0,0.0,0.0,0.0,0.0,0.0,0.0,0.0,1.67814032449097E+09,0.0,2023-03-06 14:05:24.490
227.0,-1205.4519302191700,-4018.1507489861000,10504.783452127400,-13995.075404057000,21645.04935086360,0.0,0.0,0.0,0.422,-0.47000000000000000,-0.8260000000000000,192.0,0.0,0.0,0.0,0.0,0.0,0.0,0.0,0.0,0.0,1.67814032449398E+09,0.0,2023-03-06 14:05:24.493
228.0,-1197.9193923377300,-4017.8601763081800,10528.610411716700,-13999.72456690370,21649.542051499100,0.0,0.0,0.0,0.422,-0.47000000000000000,-0.8260000000000000,192.0,0.0,0.0,0.0,0.0,0.0,0.0,0.0,0.0,0.0,1.67814032449899E+09,0.0,2023-03-06 14:05:24.498
229.0,-1198.3440754823800,-4016.474368151950,10522.329571524800,-14003.39025299430,21639.394359516400,0.0,0.0,0.0,0.422,-0.47000000000000000,-0.8260000000000000,192.0,0.0,0.0,0.0,0.0,0.0,0.0,0.0,0.0,0.0,1.678140324503E+09,0.0,2023-03-06 14:05:24.502
230.0,-1195.1924795141800,-4016.720237340960,10518.686237178600,-14001.311540760000,21644.445853763300,0.0,0.0,0.0,0.422,-0.47000000000000000,-0.8260000000000000,192.0,0.0,0.0,0.0,0.0,0.0,0.0,0.0,0.0,0.0,1.67814032450705E+09,0.0,2023-03-06 14:05:24.507
231.0,-1195.1254242808100,-4018.106045497190,10505.096376549800,-14005.647779184300,21636.890964137400,0.0,0.0,0.0,0.418,-0.47000000000000000,-0.8260000000000000,192.0,13.0,16.0,241.0,80.0,230.0,48.0,0.0,0.0,0.0,1.67814032451105E+09,0.0,2023-03-06 14:05:24.511
232.0,-1193.9631335691400,-4018.0166385193600,10527.872804149700,-14005.357206506400,21645.608144475,0.0,0.0,0.0,0.418,-0.47000000000000000,-0.8260000000000000,192.0,0.0,0.0,0.0,0.0,0.0,0.0,0.0,0.0,0.0,1.67814032451509E+09,0.0,2023-03-06 14:05:24.515
233.0,-1195.0807207919000,-4016.429664663040,10527.090493093800,-13998.472869214200,21648.580926487600,0.0,0.0,0.0,0.418,-0.47000000000000000,-0.8260000000000000,192.0,0.0,0.0,0.0,0.0,0.0,0.0,0.0,0.0,0.0,1.6781403245191E+09,0.0,2023-03-06 14:05:24.519
234.0,-1192.5102701795400,-4014.865042551170,10527.761045427400,-14000.551581448500,21644.42350201890,0.0,0.0,0.0,0.418,-0.47000000000000000,-0.8260000000000000,192.0,0.0,0.0,0.0,0.0,0.0,0.0,0.0,0.0,0.0,1.67814032452208E+09,0.0,2023-03-06 14:05:24.522
235.0,-1192.8902498352800,-4013.479234394940,10515.51228946590,-13998.986959336600,21642.501251995700,0.0,0.0,0.0,0.418,-0.47000000000000000,-0.8260000000000000,192.0,0.0,0.0,0.0,0.0,0.0,0.0,0.0,0.0,0.0,1.67814032452711E+09,0.0,2023-03-06 14:05:24.527
236.0,-1190.0962817783700,-4016.809644318780,10531.85141466280,-13999.09871805890,21648.04448462060,0.0,0.0,0.0,0.418,-0.47000000000000000,-0.8260000000000000,192.0,0.0,0.0,0.0,0.0,0.0,0.0,0.0,0.0,0.0,1.67814032453114E+09,0.0,2023-03-06 14:05:24.531
237.0,-1195.8630318478400,-4017.770769330360,10534.108940852800,-14001.423299482300,21639.215545560800,0.0,0.0,0.0,0.418,-0.47000000000000000,-0.8260000000000000,192.0,0.0,0.0,0.0,0.0,0.0,0.0,0.0,0.0,0.0,1.67814032453518E+09,0.0,2023-03-06 14:05:24.535
238.0,-1202.2109272731500,-4018.776597830840,10530.0856268508,-14001.400947737800,21635.75102517020,0.0,0.0,0.0,0.418,-0.47000000000000000,-0.8260000000000000,192.0,0.0,0.0,0.0,0.0,0.0,0.0,0.0,0.0,0.0,1.6781403245392E+09,0.0,2023-03-06 14:05:24.539
239.0,-1202.9485348401700,-4019.5589088867800,10521.144929068700,-13998.070537814000,21636.9580193708,0.0,0.0,0.0,0.418,-0.47000000000000000,-0.8260000000000000,192.0,0.0,0.0,0.0,0.0,0.0,0.0,0.0,0.0,0.0,1.6781403245422E+09,0.0,2023-03-06 14:05:24.542
240.0,-1191.9961800570700,-4017.2790309523400,10531.069103606800,-13995.522438946100,21647.48569100930,0.0,0.0,0.0,0.418,-0.47000000000000000,-0.8260000000000000,192.0,0.0,0.0,0.0,0.0,0.0,0.0,0.0,0.0,0.0,1.67814032454622E+09,0.0,2023-03-06 14:05:24.546
241.0,-1185.357711953840,-4016.139091985120,10539.495711266500,-13994.29309300100,21652.93951665630,0.0,0.0,0.0,0.41600000000000000,-0.464,-0.8300000000000000,192.0,13.0,0.0,241.0,128.0,230.0,16.0,0.0,0.0,0.0,1.67814032455027E+09,0.0,2023-03-06 14:05:24.550
242.0,-1187.5034794215500,-4014.0827314952300,10528.99039137250,-13994.807183123500,21651.66546722240,0.0,0.0,0.0,0.41600000000000000,-0.464,-0.8300000000000000,192.0,0.0,0.0,0.0,0.0,0.0,0.0,0.0,0.0,0.0,1.67814032455424E+09,0.0,2023-03-06 14:05:24.554
243.0,-1195.103072536360,-4016.9661065299600,10517.278077277900,-13997.645854669300,21647.41863577590,0.0,0.0,0.0,0.41600000000000000,-0.464,-0.8300000000000000,192.0,0.0,0.0,0.0,0.0,0.0,0.0,0.0,0.0,0.0,1.67814032455927E+09,0.0,2023-03-06 14:05:24.559
244.0,-1196.9582673261500,-4019.1789292310400,10521.70372268010,-13998.830497125400,21648.737388698700,0.0,0.0,0.0,0.41600000000000000,-0.464,-0.8300000000000000,192.0,0.0,0.0,0.0,0.0,0.0,0.0,0.0,0.0,0.0,1.67814032456331E+09,0.0,2023-03-06 14:05:24.563
245.0,-1193.7396161245800,-4018.195452475010,10537.238185076500,-14000.082194814900,21656.359333558000,0.0,0.0,0.0,0.41600000000000000,-0.464,-0.8300000000000000,192.0,0.0,0.0,0.0,0.0,0.0,0.0,0.0,0.0,0.0,1.67814032456731E+09,0.0,2023-03-06 14:05:24.567
246.0,-1199.7075318941500,-4017.6366588636200,10525.235298304000,-14001.87033437140,21650.637286977400,0.0,0.0,0.0,0.41600000000000000,-0.464,-0.8300000000000000,192.0,0.0,0.0,0.0,0.0,0.0,0.0,0.0,0.0,0.0,1.67814032457033E+09,0.0,2023-03-06 14:05:24.570
247.0,-1199.4393109606900,-4019.089522253220,10520.161452312600,-14006.318331518000,21644.289391552100,0.0,0.0,0.0,0.41600000000000000,-0.464,-0.8300000000000000,192.0,0.0,0.0,0.0,0.0,0.0,0.0,0.0,0.0,0.0,1.67814032457436E+09,0.0,2023-03-06 14:05:24.574
248.0,-1197.360598726340,-4019.447150164500,10517.948629611600,-14008.039415841000,21643.596487474000,0.0,0.0,0.0,0.41600000000000000,-0.464,-0.8300000000000000,192.0,0.0,0.0,0.0,0.0,0.0,0.0,0.0,0.0,0.0,1.67814032457837E+09,0.0,2023-03-06 14:05:24.578
249.0,-1190.3421509673800,-4016.0273332628400,10541.060333378400,-14004.977226850700,21656.158167857900,0.0,0.0,0.0,0.41600000000000000,-0.464,-0.8300000000000000,192.0,0.0,0.0,0.0,0.0,0.0,0.0,0.0,0.0,0.0,1.67814032458239E+09,0.0,2023-03-06 14:05:24.582
250.0,-1191.1244620233100,-4012.942792528010,10530.309144295400,-14003.770232650100,21647.351580542500,0.0,0.0,0.0,0.41600000000000000,-0.464,-0.8300000000000000,192.0,0.0,0.0,0.0,0.0,0.0,0.0,0.0,0.0,0.0,1.67814032458644E+09,0.0,2023-03-06 14:05:24.586
251.0,-1193.493746935580,-4014.84269080671,10526.50934773800,-14005.647779184300,21638.8579176495,0.0,0.0,0.0,0.418,-0.47000000000000000,-0.834,192.0,13.0,16.0,241.0,80.0,229.0,240.0,0.0,0.0,0.0,1.67814032459145E+09,0.0,2023-03-06 14:05:24.591
252.0,-1199.1487382827700,-4018.776597830840,10514.573516198800,-14007.793546652000,21629.17961230040,0.0,0.0,0.0,0.418,-0.47000000000000000,-0.834,192.0,0.0,0.0,0.0,0.0,0.0,0.0,0.0,0.0,0.0,1.67814032459545E+09,0.0,2023-03-06 14:05:24.595
253.0,-1195.5054039365500,-4019.93888854252,10535.338286797800,-14013.225020554700,21635.862783892500,0.0,0.0,0.0,0.418,-0.47000000000000000,-0.834,192.0,0.0,0.0,0.0,0.0,0.0,0.0,0.0,0.0,0.0,1.67814032459844E+09,0.0,2023-03-06 14:05:24.598
254.0,-1197.7405783820800,-4019.6930193535100,10527.828100660800,-14015.124918833400,21626.787975643600,0.0,0.0,0.0,0.418,-0.47000000000000000,-0.834,192.0,0.0,0.0,0.0,0.0,0.0,0.0,0.0,0.0,0.0,1.67814032460247E+09,0.0,2023-03-06 14:05:24.602
255.0,-1195.5948109143700,-4020.2071094759800,10522.776606413900,-14016.197802567200,21624.910429109400,0.0,0.0,0.0,0.418,-0.47000000000000000,-0.834,192.0,0.0,0.0,0.0,0.0,0.0,0.0,0.0,0.0,0.0,1.67814032460652E+09,0.0,2023-03-06 14:05:24.606
0.0,-1195.8853835922900,-4019.6930193535100,10507.867992862200,-14016.130747333900,21626.631513432400,0.0,0.0,0.0,0.418,-0.47000000000000000,-0.834,192.0,0.0,0.0,0.0,0.0,0.0,0.0,0.0,0.0,0.0,1.67814032461052E+09,0.0,2023-03-06 14:05:24.610
1.0,-1189.5151364225300,-4016.2508507073900,10528.409246016700,-14017.024817112100,21639.908449638900,0.0,0.0,0.0,0.418,-0.47000000000000000,-0.834,192.0,0.0,0.0,0.0,0.0,0.0,0.0,0.0,0.0,0.0,1.67814032461451E+09,0.0,2023-03-06 14:05:24.614
2.0,-1192.9126015797400,-4013.188661717020,10525.727036682000,-14011.883915887300,21640.601353717000,0.0,0.0,0.0,0.418,-0.47000000000000000,-0.834,192.0,0.0,0.0,0.0,0.0,0.0,0.0,0.0,0.0,0.0,1.67814032461958E+09,0.0,2023-03-06 14:05:24.619
3.0,-1198.8358138603900,-4013.0098477613700,10522.217812802500,-14000.596284937400,21651.039618377600,0.0,0.0,0.0,0.418,-0.47000000000000000,-0.834,192.0,0.0,0.0,0.0,0.0,0.0,0.0,0.0,0.0,0.0,1.6781403246236E+09,0.0,2023-03-06 14:05:24.623
4.0,-1200.847470861370,-4014.261545450870,10508.963228340500,-13994.427203467800,21649.966734643800,0.0,0.0,0.0,0.418,-0.47000000000000000,-0.834,192.0,0.0,0.0,0.0,0.0,0.0,0.0,0.0,0.0,0.0,1.67814032462763E+09,0.0,2023-03-06 14:05:24.627
5.0,-1187.3470172103700,-4012.831033805730,10526.17407157110,-13997.131764546800,21645.742254941700,0.0,0.0,0.0,0.42,-0.47000000000000000,-0.8280000000000000,192.0,13.0,32.0,241.0,80.0,230.0,32.0,0.0,0.0,0.0,1.67814032463061E+09,0.0,2023-03-06 14:05:24.630
6.0,-1175.9252757937000,-4007.421911647550,10533.997182130500,-14003.747880905600,21642.27773455120,0.0,0.0,0.0,0.42,-0.47000000000000000,-0.8280000000000000,192.0,0.0,0.0,0.0,0.0,0.0,0.0,0.0,0.0,0.0,1.67814032463463E+09,0.0,2023-03-06 14:05:24.634
7.0,-1173.5336391369900,-4005.320847668750,10530.89028965120,-13997.19881978020,21643.060045607100,0.0,0.0,0.0,0.42,-0.47000000000000000,-0.8280000000000000,192.0,0.0,0.0,0.0,0.0,0.0,0.0,0.0,0.0,0.0,1.67814032463865E+09,0.0,2023-03-06 14:05:24.638
8.0,-1173.5112873925300,-4003.778577301330,10520.27321103490,-13992.951988333700,21642.613010718000,0.0,0.0,0.0,0.42,-0.47000000000000000,-0.8280000000000000,192.0,0.0,0.0,0.0,0.0,0.0,0.0,0.0,0.0,0.0,1.67814032464266E+09,0.0,2023-03-06 14:05:24.642
9.0,-1173.3995286702500,-4005.700827324490,10526.352885526800,-13996.394156979800,21640.154318827900,0.0,0.0,0.0,0.42,-0.47000000000000000,-0.8280000000000000,192.0,0.0,0.0,0.0,0.0,0.0,0.0,0.0,0.0,0.0,1.67814032464668E+09,0.0,2023-03-06 14:05:24.646
10.0,-1178.205153728150,-4008.2042227034800,10532.253746063000,-14001.758575649100,21639.215545560800,0.0,0.0,0.0,0.42,-0.47000000000000000,-0.8280000000000000,192.0,0.0,0.0,0.0,0.0,0.0,0.0,0.0,0.0,0.0,1.67814032465175E+09,0.0,2023-03-06 14:05:24.651
11.0,-1180.7309008516000,-4007.354856414180,10523.089530836300,-13997.24352326910,21635.974542614800,0.0,0.0,0.0,0.42,-0.47000000000000000,-0.8280000000000000,192.0,0.0,0.0,0.0,0.0,0.0,0.0,0.0,0.0,0.0,1.67814032465471E+09,0.0,2023-03-06 14:05:24.654
12.0,-1177.199325227660,-4009.3665134151600,10516.22754528850,-13993.890761600800,21638.14266182690,0.0,0.0,0.0,0.42,-0.47000000000000000,-0.8280000000000000,192.0,0.0,0.0,0.0,0.0,0.0,0.0,0.0,0.0,0.0,1.67814032465874E+09,0.0,2023-03-06 14:05:24.658
13.0,-1176.7969938274600,-4012.1157779831600,10515.959324355000,-13995.76830813510,21644.401150274400,0.0,0.0,0.0,0.42,-0.47000000000000000,-0.8280000000000000,192.0,0.0,0.0,0.0,0.0,0.0,0.0,0.0,0.0,0.0,1.67814032466275E+09,0.0,2023-03-06 14:05:24.662
14.0,-1174.9865025265800,-4012.518109383360,10530.957344884600,-14000.551581448500,21648.29035380960,0.0,0.0,0.0,0.42,-0.47000000000000000,-0.8280000000000000,192.0,0.0,0.0,0.0,0.0,0.0,0.0,0.0,0.0,0.0,1.67814032466679E+09,0.0,2023-03-06 14:05:24.666
15.0,-1176.8416973163700,-4011.0205425048500,10521.256687791000,-13999.031662825500,21641.316609539600,0.0,0.0,0.0,0.422,-0.47000000000000000,-0.8200000000000000,192.0,13.0,48.0,241.0,80.0,230.0,96.0,0.0,0.0,0.0,1.6781403246708E+09,0.0,2023-03-06 14:05:24.670
16.0,-1179.8815345622900,-4009.4335686485300,10515.467585977000,-13999.545752948000,21639.327304283100,0.0,0.0,0.0,0.422,-0.47000000000000000,-0.8200000000000000,192.0,0.0,0.0,0.0,0.0,0.0,0.0,0.0,0.0,0.0,1.6781403246749E+09,0.0,2023-03-06 14:05:24.674
17.0,-1180.976770040600,-4009.254754692880,10509.007931829400,-13995.075404057000,21638.790862416100,0.0,0.0,0.0,0.422,-0.47000000000000000,-0.8200000000000000,192.0,0.0,0.0,0.0,0.0,0.0,0.0,0.0,0.0,0.0,1.67814032467888E+09,0.0,2023-03-06 14:05:24.678
18.0,-1174.7629850820300,-4008.5618506147700,10529.772702428400,-14000.663340170800,21644.289391552100,0.0,0.0,0.0,0.422,-0.47000000000000000,-0.8200000000000000,192.0,0.0,0.0,0.0,0.0,0.0,0.0,0.0,0.0,0.0,1.6781403246829E+09,0.0,2023-03-06 14:05:24.682
19.0,-1176.0817380048900,-4007.377208158640,10519.870879634700,-14003.0549768275,21638.120310082500,0.0,0.0,0.0,0.422,-0.47000000000000000,-0.8200000000000000,192.0,0.0,0.0,0.0,0.0,0.0,0.0,0.0,0.0,0.0,1.67814032468595E+09,0.0,2023-03-06 14:05:24.685
20.0,-1178.1604502392400,-4008.897126781600,10511.868955119700,-14000.01513958160,21642.613010718000,0.0,0.0,0.0,0.422,-0.47000000000000000,-0.8200000000000000,192.0,0.0,0.0,0.0,0.0,0.0,0.0,0.0,0.0,0.0,1.67814032469193E+09,0.0,2023-03-06 14:05:24.691
21.0,-1182.8990200637600,-4010.3723419156500,10496.535658423400,-14000.1045465594,21643.57413572960,0.0,0.0,0.0,0.422,-0.47000000000000000,-0.8200000000000000,192.0,0.0,0.0,0.0,0.0,0.0,0.0,0.0,0.0,0.0,1.67814032469491E+09,0.0,2023-03-06 14:05:24.694
22.0,-1179.7697758400200,-4011.4005221605900,10518.619181945200,-14002.697348916200,21655.174691101900,0.0,0.0,0.0,0.422,-0.47000000000000000,-0.8200000000000000,192.0,0.0,0.0,0.0,0.0,0.0,0.0,0.0,0.0,0.0,1.67814032469896E+09,0.0,2023-03-06 14:05:24.698
23.0,-1183.390758441780,-4010.1264727266400,10515.244068532500,-14005.223096039700,21647.753911942700,0.0,0.0,0.0,0.422,-0.47000000000000000,-0.8200000000000000,192.0,0.0,0.0,0.0,0.0,0.0,0.0,0.0,0.0,0.0,1.67814032470294E+09,0.0,2023-03-06 14:05:24.702
24.0,-1184.7765665980100,-4011.6910948385100,10517.36748425570,-14004.284322772500,21649.13972009890,0.0,0.0,0.0,0.422,-0.47000000000000000,-0.8200000000000000,192.0,0.0,0.0,0.0,0.0,0.0,0.0,0.0,0.0,0.0,1.678140324707E+09,0.0,2023-03-06 14:05:24.707
25.0,-1192.845546346370,-4013.3004204392900,10506.191612028100,-14002.071500071500,21651.307839311100,0.0,0.0,0.0,0.424,-0.468,-0.8300000000000000,192.0,13.0,64.0,241.0,96.0,230.0,16.0,0.0,0.0,0.0,1.67814032471099E+09,0.0,2023-03-06 14:05:24.710
26.0,-1197.0253225595100,-4015.6250018626500,10523.290696536400,-14003.881991372300,21662.394304560900,0.0,0.0,0.0,0.424,-0.468,-0.8300000000000000,192.0,0.0,0.0,0.0,0.0,0.0,0.0,0.0,0.0,0.0,1.67814032471404E+09,0.0,2023-03-06 14:05:24.714
27.0,-1197.1594330262500,-4015.066208251260,10519.490899979000,-14001.53505820450,21657.007534147200,0.0,0.0,0.0,0.424,-0.468,-0.8300000000000000,192.0,0.0,0.0,0.0,0.0,0.0,0.0,0.0,0.0,0.0,1.67814032471801E+09,0.0,2023-03-06 14:05:24.718
28.0,-1190.6103719008400,-4016.720237340960,10512.718321409000,-14004.463136728200,21655.7111329688,0.0,0.0,0.0,0.424,-0.468,-0.8300000000000000,192.0,0.0,0.0,0.0,0.0,0.0,0.0,0.0,0.0,0.0,1.67814032472303E+09,0.0,2023-03-06 14:05:24.723
29.0,-1200.489842950090,-4019.5589088867800,10494.881629333700,-14008.48645073010,21652.984220145300,0.0,0.0,0.0,0.424,-0.468,-0.8300000000000000,192.0,0.0,0.0,0.0,0.0,0.0,0.0,0.0,0.0,0.0,1.67814032472704E+09,0.0,2023-03-06 14:05:24.727
30.0,-1198.3440754823800,-4019.3130396977700,10509.477318463000,-14005.91600011780,21659.354467315000,0.0,0.0,0.0,0.424,-0.468,-0.8300000000000000,192.0,0.0,0.0,0.0,0.0,0.0,0.0,0.0,0.0,0.0,1.67814032473113E+09,0.0,2023-03-06 14:05:24.731
31.0,-1195.684217892200,-4017.971935030450,10515.981676099500,-14005.066633828500,21655.24174633520,0.0,0.0,0.0,0.424,-0.468,-0.8300000000000000,192.0,0.0,0.0,0.0,0.0,0.0,0.0,0.0,0.0,0.0,1.6781403247351E+09,0.0,2023-03-06 14:05:24.735
32.0,-1195.5948109143700,-4021.2352897209300,10510.55020219690,-14008.978189108200,21646.122234597500,0.0,0.0,0.0,0.424,-0.468,-0.8300000000000000,192.0,0.0,0.0,0.0,0.0,0.0,0.0,0.0,0.0,0.0,1.67814032473913E+09,0.0,2023-03-06 14:05:24.739
33.0,-1200.3110289944400,-4021.9505455435000,10499.910771836100,-14006.564200707000,21645.272868308200,0.0,0.0,0.0,0.424,-0.468,-0.8300000000000000,192.0,0.0,0.0,0.0,0.0,0.0,0.0,0.0,0.0,0.0,1.67814032474213E+09,0.0,2023-03-06 14:05:24.742
34.0,-1199.1487382827700,-4022.621097877160,10507.912696351100,-14004.932523361700,21648.89385090990,0.0,0.0,0.0,0.424,-0.468,-0.8300000000000000,192.0,0.0,0.0,0.0,0.0,0.0,0.0,0.0,0.0,0.0,1.67814032474616E+09,0.0,2023-03-06 14:05:24.746
35.0,-1199.3722557273200,-4021.682324610030,10519.155623812200,-14006.653607684800,21655.0629323796,0.0,0.0,0.0,0.426,-0.466,-0.834,192.0,13.0,80.0,241.0,112.0,229.0,240.0,0.0,0.0,0.0,1.67814032475016E+09,0.0,2023-03-06 14:05:24.750
36.0,-1194.5442789249800,-4018.5307286418400,10512.65126617570,-14008.374692007900,21656.29227832460,0.0,0.0,0.0,0.426,-0.466,-0.834,192.0,0.0,0.0,0.0,0.0,0.0,0.0,0.0,0.0,0.0,1.6781403247552E+09,0.0,2023-03-06 14:05:24.755
37.0,-1194.6783893917100,-4018.2401559639200,10504.336417238300,-14008.754671663600,21651.5090050112,0.0,0.0,0.0,0.426,-0.466,-0.834,192.0,0.0,0.0,0.0,0.0,0.0,0.0,0.0,0.0,0.0,1.6781403247592E+09,0.0,2023-03-06 14:05:24.759
38.0,-1197.070026048430,-4019.044818764310,10506.146908539200,-14003.680825672200,21650.52552825520,0.0,0.0,0.0,0.426,-0.466,-0.834,192.0,0.0,0.0,0.0,0.0,0.0,0.0,0.0,0.0,0.0,1.67814032476322E+09,0.0,2023-03-06 14:05:24.763
39.0,-1193.0914155353800,-4013.859214050680,10525.79409191540,-14001.62446518240,21655.04058063510,0.0,0.0,0.0,0.426,-0.466,-0.834,192.0,0.0,0.0,0.0,0.0,0.0,0.0,0.0,0.0,0.0,1.67814032476625E+09,0.0,2023-03-06 14:05:24.766
40.0,-1186.1847264986900,-4013.3674756726600,10513.36652199820,-14002.227962282700,21647.262173564700,0.0,0.0,0.0,0.426,-0.466,-0.834,192.0,0.0,0.0,0.0,0.0,0.0,0.0,0.0,0.0,0.0,1.67814032477024E+09,0.0,2023-03-06 14:05:24.770
41.0,-1183.9048485642500,-4015.736760584920,10505.990446328000,-14002.384424493800,21644.289391552100,0.0,0.0,0.0,0.426,-0.466,-0.834,192.0,0.0,0.0,0.0,0.0,0.0,0.0,0.0,0.0,0.0,1.67814032477432E+09,0.0,2023-03-06 14:05:24.774
42.0,-1187.749348610560,-4016.5637751297700,10497.541486923900,-14002.272665771600,21641.964810128800,0.0,0.0,0.0,0.426,-0.466,-0.834,192.0,0.0,0.0,0.0,0.0,0.0,0.0,0.0,0.0,0.0,1.67814032477828E+09,0.0,2023-03-06 14:05:24.778
43.0,-1182.0943572633700,-4013.479234394940,10518.909754623100,-14000.261008770600,21658.303935325600,0.0,0.0,0.0,0.426,-0.466,-0.834,192.0,0.0,0.0,0.0,0.0,0.0,0.0,0.0,0.0,0.0,1.67814032478329E+09,0.0,2023-03-06 14:05:24.783
44.0,-1185.0000840425600,-4010.84172854921,10507.286847506400,-14000.149250048300,21652.04544687810,0.0,0.0,0.0,0.426,-0.466,-0.834,192.0,0.0,0.0,0.0,0.0,0.0,0.0,0.0,0.0,0.0,1.67814032478731E+09,0.0,2023-03-06 14:05:24.787
45.0,-1188.1516800107600,-4011.1546529715800,10500.26839974740,-13999.81397388150,21648.782092187700,0.0,0.0,0.0,0.428,-0.468,-0.834,192.0,13.0,96.0,241.0,96.0,229.0,240.0,0.0,0.0,0.0,1.67814032479138E+09,0.0,2023-03-06 14:05:24.791
46.0,-1189.6045434003500,-4011.7581500718800,10489.003120541900,-14006.094814073400,21638.38853101590,0.0,0.0,0.0,0.428,-0.468,-0.834,192.0,0.0,0.0,0.0,0.0,0.0,0.0,0.0,0.0,0.0,1.67814032479436E+09,0.0,2023-03-06 14:05:24.794
47.0,-1190.0962817783700,-4012.2722401943500,10513.053597575900,-14007.972360607700,21649.631458477000,0.0,0.0,0.0,0.428,-0.468,-0.834,192.0,0.0,0.0,0.0,0.0,0.0,0.0,0.0,0.0,0.0,1.67814032479836E+09,0.0,2023-03-06 14:05:24.798
48.0,-1191.6385521457900,-4010.0147140043600,10510.304333007900,-14010.609866453400,21641.629533962000,0.0,0.0,0.0,0.428,-0.468,-0.834,192.0,0.0,0.0,0.0,0.0,0.0,0.0,0.0,0.0,0.0,1.67814032480241E+09,0.0,2023-03-06 14:05:24.802
49.0,-1182.2731712190100,-4009.03123724833,10512.092472564300,-14010.453404242200,21638.94732462730,0.0,0.0,0.0,0.428,-0.468,-0.834,192.0,0.0,0.0,0.0,0.0,0.0,0.0,0.0,0.0,0.0,1.67814032480643E+09,0.0,2023-03-06 14:05:24.806
50.0,-1187.5705346549200,-4009.590030859710,10499.910771836100,-14007.458270485200,21639.394359516400,0.0,0.0,0.0,0.428,-0.468,-0.834,192.0,0.0,0.0,0.0,0.0,0.0,0.0,0.0,0.0,0.0,1.67814032481047E+09,0.0,2023-03-06 14:05:24.810
51.0,-1184.4636421756300,-4008.807719803780,10520.809652901800,-14011.593343209400,21655.442912035300,0.0,0.0,0.0,0.428,-0.468,-0.834,192.0,0.0,0.0,0.0,0.0,0.0,0.0,0.0,0.0,0.0,1.67814032481557E+09,0.0,2023-03-06 14:05:24.815
52.0,-1185.5141741650300,-4008.4724436369500,10521.100225579800,-14014.29790428850,21653.05127537860,0.0,0.0,0.0,0.428,-0.468,-0.834,192.0,0.0,0.0,0.0,0.0,0.0,0.0,0.0,0.0,0.0,1.67814032481845E+09,0.0,2023-03-06 14:05:24.818
53.0,-1189.0457497889700,-4012.7192750834600,10515.624048188200,-14014.432014755300,21643.305914796100,0.0,0.0,0.0,0.428,-0.468,-0.834,192.0,0.0,0.0,0.0,0.0,0.0,0.0,0.0,0.0,0.0,1.67814032482248E+09,0.0,2023-03-06 14:05:24.822
54.0,-1197.6735231487200,-4014.3286006842400,10500.357806725200,-14011.928619376300,21635.795728659100,0.0,0.0,0.0,0.428,-0.468,-0.834,192.0,0.0,0.0,0.0,0.0,0.0,0.0,0.0,0.0,0.0,1.67814032482648E+09,0.0,2023-03-06 14:05:24.826
55.0,-1194.7901481139800,-4012.495757638900,10512.718321409000,-14008.464098985700,21644.9599438858,0.0,0.0,0.0,0.428,-0.468,-0.834,192.0,0.0,0.0,0.0,0.0,0.0,0.0,0.0,0.0,0.0,1.67814032483049E+09,0.0,2023-03-06 14:05:24.830
56.0,-1191.5044416790500,-4011.4452256495000,10521.860184891200,-14008.687616430200,21648.200946831800,0.0,0.0,0.0,0.424,-0.47200000000000000,-0.836,192.0,13.0,64.0,241.0,64.0,229.0,224.0,0.0,0.0,0.0,1.67814032483452E+09,0.0,2023-03-06 14:05:24.834
57.0,-1194.454871947150,-4011.959315771980,10514.528812709900,-14011.123956575900,21644.311743296600,0.0,0.0,0.0,0.424,-0.47200000000000000,-0.836,192.0,0.0,0.0,0.0,0.0,0.0,0.0,0.0,0.0,0.0,1.67814032483854E+09,0.0,2023-03-06 14:05:24.838
58.0,-1193.8290231024100,-4013.523937883850,10498.36850146870,-14007.324160018500,21639.550821727600,0.0,0.0,0.0,0.424,-0.47200000000000000,-0.836,192.0,0.0,0.0,0.0,0.0,0.0,0.0,0.0,0.0,0.0,1.67814032484355E+09,0.0,2023-03-06 14:05:24.843
59.0,-1193.650209146760,-4015.6026501181900,10502.995312571000,-14009.894610630800,21644.043522363100,0.0,0.0,0.0,0.424,-0.47200000000000000,-0.836,192.0,0.0,0.0,0.0,0.0,0.0,0.0,0.0,0.0,0.0,1.6781403248466E+09,0.0,2023-03-06 14:05:24.846
60.0,-1190.8115376009400,-4014.7309320844300,10516.674580177600,-14015.281381044600,21651.15137709990,0.0,0.0,0.0,0.424,-0.47200000000000000,-0.836,192.0,0.0,0.0,0.0,0.0,0.0,0.0,0.0,0.0,0.0,1.67814032484963E+09,0.0,2023-03-06 14:05:24.849
61.0,-1190.3868544562900,-4013.0098477613700,10509.74553939650,-14012.1074333319,21643.484728751700,0.0,0.0,0.0,0.424,-0.47200000000000000,-0.836,192.0,0.0,0.0,0.0,0.0,0.0,0.0,0.0,0.0,0.0,1.67814032485464E+09,0.0,2023-03-06 14:05:24.854
62.0,-1196.9359155816900,-4016.6978855965000,10503.55410618240,-14007.301808274000,21638.14266182690,0.0,0.0,0.0,0.424,-0.47200000000000000,-0.836,192.0,0.0,0.0,0.0,0.0,0.0,0.0,0.0,0.0,0.0,1.67814032485863E+09,0.0,2023-03-06 14:05:24.858
63.0,-1201.3168574949300,-4018.642487364110,10501.274228247900,-14007.771194907600,21644.62466771900,0.0,0.0,0.0,0.424,-0.47200000000000000,-0.836,192.0,0.0,0.0,0.0,0.0,0.0,0.0,0.0,0.0,0.0,1.67814032486265E+09,0.0,2023-03-06 14:05:24.862
64.0,-1197.1370812817900,-4018.5977838752000,10518.686237178600,-14010.118128075400,21657.85690043650,0.0,0.0,0.0,0.424,-0.47200000000000000,-0.836,192.0,0.0,0.0,0.0,0.0,0.0,0.0,0.0,0.0,0.0,1.67814032486673E+09,0.0,2023-03-06 14:05:24.866
65.0,-1201.1156917948400,-4020.989420531920,10506.973923084000,-14010.855735642400,21652.38072304500,0.0,0.0,0.0,0.424,-0.47200000000000000,-0.836,192.0,0.0,0.0,0.0,0.0,0.0,0.0,0.0,0.0,0.0,1.6781403248707E+09,0.0,2023-03-06 14:05:24.870
66.0,-1209.877575621320,-4023.4481124220000,10498.949646824600,-14010.72162517570,21649.27383056570,0.0,0.0,0.0,0.42,-0.47200000000000000,-0.838,192.0,13.0,32.0,241.0,64.0,229.0,208.0,0.0,0.0,0.0,1.67814032487471E+09,0.0,2023-03-06 14:05:24.874
67.0,-1212.2692122780300,-4024.252775222390,10490.74655660950,-14015.259029300100,21645.339923541500,0.0,0.0,0.0,0.42,-0.47200000000000000,-0.838,192.0,0.0,0.0,0.0,0.0,0.0,0.0,0.0,0.0,0.0,1.67814032487773E+09,0.0,2023-03-06 14:05:24.877
68.0,-1201.7191888951300,-4023.738685099920,10512.673617920100,-14012.174488565300,21655.688781224300,0.0,0.0,0.0,0.42,-0.47200000000000000,-0.838,192.0,0.0,0.0,0.0,0.0,0.0,0.0,0.0,0.0,0.0,1.67814032488176E+09,0.0,2023-03-06 14:05:24.881
69.0,-1197.5170609375300,-4022.8893188106200,10500.581324169800,-14008.1064710744,21654.459435279300,0.0,0.0,0.0,0.42,-0.47200000000000000,-0.838,192.0,0.0,0.0,0.0,0.0,0.0,0.0,0.0,0.0,0.0,1.67814032488674E+09,0.0,2023-03-06 14:05:24.886
70.0,-1199.3052004939600,-4026.13032175664,10493.540524666400,-14009.648741441800,21658.90743242590,0.0,0.0,0.0,0.42,-0.47200000000000000,-0.838,192.0,0.0,0.0,0.0,0.0,0.0,0.0,0.0,0.0,0.0,1.67814032489079E+09,0.0,2023-03-06 14:05:24.890
71.0,-1203.61908717383,-4026.934984557030,10478.162524481100,-14005.781889651000,21661.656696993900,0.0,0.0,0.0,0.42,-0.47200000000000000,-0.838,192.0,0.0,0.0,0.0,0.0,0.0,0.0,0.0,0.0,0.0,1.6781403248948E+09,0.0,2023-03-06 14:05:24.894
72.0,-1197.9193923377300,-4023.1351879996300,10498.234391002000,-14003.904343116800,21677.57113904610,0.0,0.0,0.0,0.42,-0.47200000000000000,-0.838,192.0,0.0,0.0,0.0,0.0,0.0,0.0,0.0,0.0,0.0,1.67814032489891E+09,0.0,2023-03-06 14:05:24.898
73.0,-1197.0253225595100,-4018.396618175100,10493.428765944100,-14005.088985572900,21672.09496165450,0.0,0.0,0.0,0.42,-0.47200000000000000,-0.838,192.0,0.0,0.0,0.0,0.0,0.0,0.0,0.0,0.0,0.0,1.67814032490193E+09,0.0,2023-03-06 14:05:24.901
74.0,-1194.454871947150,-4016.9884582744200,10490.210114742500,-14004.463136728200,21673.503121555200,0.0,0.0,0.0,0.42,-0.47200000000000000,-0.838,192.0,0.0,0.0,0.0,0.0,0.0,0.0,0.0,0.0,0.0,1.67814032490587E+09,0.0,2023-03-06 14:05:24.905
75.0,-1196.0194940590300,-4016.742589085410,10475.748536079900,-13999.210476781200,21667.088170896600,0.0,0.0,0.0,0.42,-0.47200000000000000,-0.838,192.0,0.0,0.0,0.0,0.0,0.0,0.0,0.0,0.0,0.0,1.6781403249099E+09,0.0,2023-03-06 14:05:24.909
76.0,-1192.778491113010,-4018.9554117864900,10492.244123488000,-14000.01513958160,21672.564348288100,0.0,0.0,0.0,0.422,-0.47200000000000000,-0.836,192.0,13.0,48.0,241.0,64.0,229.0,224.0,0.0,0.0,0.0,1.67814032491387E+09,0.0,2023-03-06 14:05:24.913
77.0,-1196.555935925950,-4019.2236327199500,10491.059481031800,-14002.809107638500,21670.843263965000,0.0,0.0,0.0,0.422,-0.47200000000000000,-0.836,192.0,0.0,0.0,0.0,0.0,0.0,0.0,0.0,0.0,0.0,1.6781403249189E+09,0.0,2023-03-06 14:05:24.918
78.0,-1197.7629301265400,-4018.2178042194600,10488.958417053000,-14003.904343116800,21669.85978720900,0.0,0.0,0.0,0.422,-0.47200000000000000,-0.836,192.0,0.0,0.0,0.0,0.0,0.0,0.0,0.0,0.0,0.0,1.67814032492295E+09,0.0,2023-03-06 14:05:24.922
79.0,-1196.421825459220,-4017.100216996700,10477.290806447400,-14004.507840217100,21665.411790062400,0.0,0.0,0.0,0.422,-0.47200000000000000,-0.836,192.0,0.0,0.0,0.0,0.0,0.0,0.0,0.0,0.0,0.0,1.67814032492794E+09,0.0,2023-03-06 14:05:24.927
80.0,-1194.588982413890,-4015.200318718000,10489.293693219900,-14001.400947737800,21672.13966514350,0.0,0.0,0.0,0.422,-0.47200000000000000,-0.836,192.0,0.0,0.0,0.0,0.0,0.0,0.0,0.0,0.0,0.0,1.67814032493198E+09,0.0,2023-03-06 14:05:24.931
81.0,-1193.2702294910200,-4014.12743498414,10495.88745783420,-14002.33972100490,21674.687764011400,0.0,0.0,0.0,0.422,-0.47200000000000000,-0.836,192.0,0.0,0.0,0.0,0.0,0.0,0.0,0.0,0.0,0.0,1.67814032493496E+09,0.0,2023-03-06 14:05:24.934
82.0,-1193.2702294910200,-4013.613344861670,10488.131402508200,-13998.651683169800,21671.647926765400,0.0,0.0,0.0,0.422,-0.47200000000000000,-0.836,192.0,0.0,0.0,0.0,0.0,0.0,0.0,0.0,0.0,0.0,1.67814032493797E+09,0.0,2023-03-06 14:05:24.937
83.0,-1193.493746935580,-4015.200318718000,10478.140172736700,-13997.1541162913,21664.33890632860,0.0,0.0,0.0,0.422,-0.47200000000000000,-0.836,192.0,0.0,0.0,0.0,0.0,0.0,0.0,0.0,0.0,0.0,1.67814032494203E+09,0.0,2023-03-06 14:05:24.942
84.0,-1194.3207614804200,-4018.3742664306500,10481.761155338400,-13999.076366314500,21669.18923487540,0.0,0.0,0.0,0.422,-0.47200000000000000,-0.836,192.0,0.0,0.0,0.0,0.0,0.0,0.0,0.0,0.0,0.0,1.67814032494605E+09,0.0,2023-03-06 14:05:24.946
85.0,-1190.1856887561900,-4018.2178042194600,10495.55218166740,-14001.333892504400,21681.10271467000,0.0,0.0,0.0,0.422,-0.47200000000000000,-0.836,192.0,0.0,0.0,0.0,0.0,0.0,0.0,0.0,0.0,0.0,1.67814032495107E+09,0.0,2023-03-06 14:05:24.951
86.0,-1190.9679998121300,-4015.513243140370,10488.64549263070,-14006.810069896000,21676.408848334400,0.0,0.0,0.0,0.41600000000000000,-0.47200000000000000,-0.8300000000000000,192.0,13.0,0.0,241.0,64.0,230.0,16.0,0.0,0.0,0.0,1.67814032495507E+09,0.0,2023-03-06 14:05:24.955
87.0,-1194.812499858440,-4015.4685396514600,10482.901094305600,-14009.67109318630,21669.300993597600,0.0,0.0,0.0,0.41600000000000000,-0.47200000000000000,-0.8300000000000000,192.0,0.0,0.0,0.0,0.0,0.0,0.0,0.0,0.0,0.0,1.67814032495813E+09,0.0,2023-03-06 14:05:24.958
88.0,-1198.0758545489100,-4017.0555135077900,10482.655225116600,-14005.312503017500,21672.318479099100,0.0,0.0,0.0,0.41600000000000000,-0.47200000000000000,-0.8300000000000000,192.0,0.0,0.0,0.0,0.0,0.0,0.0,0.0,0.0,0.0,1.67814032496209E+09,0.0,2023-03-06 14:05:24.962
89.0,-1196.6006394148600,-4016.474368151950,10505.83398411680,-14006.273628029100,21680.94625245880,0.0,0.0,0.0,0.41600000000000000,-0.47200000000000000,-0.8300000000000000,192.0,0.0,0.0,0.0,0.0,0.0,0.0,0.0,0.0,0.0,1.67814032496615E+09,0.0,2023-03-06 14:05:24.966
90.0,-1195.393645214280,-4014.932097784530,10498.480260191000,-14007.771194907600,21676.587662290100,0.0,0.0,0.0,0.41600000000000000,-0.47200000000000000,-0.8300000000000000,192.0,0.0,0.0,0.0,0.0,0.0,0.0,0.0,0.0,0.0,1.67814032497014E+09,0.0,2023-03-06 14:05:24.970
91.0,-1192.5102701795400,-4015.8932227961100,10495.17220201160,-14011.950971120700,21671.446761065300,0.0,0.0,0.0,0.41600000000000000,-0.47200000000000000,-0.8300000000000000,192.0,0.0,0.0,0.0,0.0,0.0,0.0,0.0,0.0,0.0,1.67814032497415E+09,0.0,2023-03-06 14:05:24.974
92.0,-1195.5054039365500,-4019.380094931140,10484.59982688430,-14014.052035099500,21665.90352844040,0.0,0.0,0.0,0.41600000000000000,-0.47200000000000000,-0.8300000000000000,192.0,0.0,0.0,0.0,0.0,0.0,0.0,0.0,0.0,0.0,1.67814032497917E+09,0.0,2023-03-06 14:05:24.979
93.0,-1192.9349533241900,-4018.642487364110,10505.610466672200,-14015.571953722500,21679.269871624700,0.0,0.0,0.0,0.41600000000000000,-0.47200000000000000,-0.8300000000000000,192.0,0.0,0.0,0.0,0.0,0.0,0.0,0.0,0.0,0.0,1.67814032498327E+09,0.0,2023-03-06 14:05:24.983
94.0,-1192.487918435090,-4014.46271115097,10500.246048003000,-14016.823651412000,21672.944327943800,0.0,0.0,0.0,0.41600000000000000,-0.47200000000000000,-0.8300000000000000,192.0,0.0,0.0,0.0,0.0,0.0,0.0,0.0,0.0,0.0,1.67814032498626E+09,0.0,2023-03-06 14:05:24.986
95.0,-1192.1079387793500,-4015.2450222069100,10497.40737645710,-14016.041340356000,21668.585737775100,0.0,0.0,0.0,0.41600000000000000,-0.47200000000000000,-0.8300000000000000,192.0,0.0,0.0,0.0,0.0,0.0,0.0,0.0,0.0,0.0,1.67814032499023E+09,0.0,2023-03-06 14:05:24.990
96.0,-1201.652133661760,-4017.2119757189700,10488.243161230500,-14016.1083955894,21663.578947017100,0.0,0.0,0.0,0.418,-0.47400000000000000,-0.8300000000000000,192.0,13.0,16.0,241.0,48.0,230.0,16.0,0.0,0.0,0.0,1.67814032499425E+09,0.0,2023-03-06 14:05:24.994
97.0,-1199.3722557273200,-4018.418969919560,10511.868955119700,-14015.057863600000,21679.225168135800,0.0,0.0,0.0,0.418,-0.47400000000000000,-0.8300000000000000,192.0,0.0,0.0,0.0,0.0,0.0,0.0,0.0,0.0,0.0,1.67814032499828E+09,0.0,2023-03-06 14:05:24.998
98.0,-1190.2527439895600,-4018.3072111972800,10505.006969571900,-14016.935410134200,21672.72081049930,0.0,0.0,0.0,0.418,-0.47400000000000000,-0.8300000000000000,192.0,0.0,0.0,0.0,0.0,0.0,0.0,0.0,0.0,0.0,1.67814032500228E+09,0.0,2023-03-06 14:05:25.002
99.0,-1189.4480811891700,-4018.486025152930,10501.385986970200,-14021.49516600310,21665.300031340100,0.0,0.0,0.0,0.418,-0.47400000000000000,-0.8300000000000000,192.0,0.0,0.0,0.0,0.0,0.0,0.0,0.0,0.0,0.0,1.67814032500633E+09,0.0,2023-03-06 14:05:25.006
100.0,-1195.23718300309,-4020.1847577315300,10488.131402508200,-14020.511689247100,21663.891871439400,0.0,0.0,0.0,0.418,-0.47400000000000000,-0.8300000000000000,192.0,0.0,0.0,0.0,0.0,0.0,0.0,0.0,0.0,0.0,1.67814032501132E+09,0.0,2023-03-06 14:05:25.011
101.0,-1193.940781824680,-4021.7270280989400,10505.766928883400,-14019.34939853540,21671.938499443400,0.0,0.0,0.0,0.418,-0.47400000000000000,-0.8300000000000000,192.0,0.0,0.0,0.0,0.0,0.0,0.0,0.0,0.0,0.0,1.6781403250144E+09,0.0,2023-03-06 14:05:25.014
102.0,-1191.5491451679600,-4018.329562941740,10506.951571339600,-14019.483509002200,21668.116351141500,0.0,0.0,0.0,0.418,-0.47400000000000000,-0.8300000000000000,192.0,0.0,0.0,0.0,0.0,0.0,0.0,0.0,0.0,0.0,1.67814032501836E+09,0.0,2023-03-06 14:05:25.018
103.0,-1190.9903515565800,-4017.41314141907,10500.715434636500,-14017.293038045500,21665.076513895600,0.0,0.0,0.0,0.418,-0.47400000000000000,-0.8300000000000000,192.0,0.0,0.0,0.0,0.0,0.0,0.0,0.0,0.0,0.0,1.6781403250224E+09,0.0,2023-03-06 14:05:25.022
104.0,-1196.421825459220,-4016.8543478076900,10488.69019611960,-14013.739110677100,21662.707228983300,0.0,0.0,0.0,0.418,-0.47400000000000000,-0.8300000000000000,192.0,0.0,0.0,0.0,0.0,0.0,0.0,0.0,0.0,0.0,1.6781403250264E+09,0.0,2023-03-06 14:05:25.026
105.0,-1192.5102701795400,-4015.803815818290,10500.648379403200,-14007.234753040600,21672.72081049930,0.0,0.0,0.0,0.418,-0.47400000000000000,-0.8300000000000000,192.0,0.0,0.0,0.0,0.0,0.0,0.0,0.0,0.0,0.0,1.67814032503038E+09,0.0,2023-03-06 14:05:25.030
106.0,-1192.3985114572700,-4014.2838971953300,10510.37138824120,-14008.553505963500,21677.48173206830,0.0,0.0,0.0,0.424,-0.47600000000000000,-0.8260000000000000,192.0,13.0,64.0,241.0,32.0,230.0,48.0,0.0,0.0,0.0,1.67814032503448E+09,0.0,2023-03-06 14:05:25.034
107.0,-1197.4723574486200,-4017.4354931635300,10504.492879449500,-14012.666226943300,21672.72081049930,0.0,0.0,0.0,0.424,-0.47600000000000000,-0.8260000000000000,192.0,0.0,0.0,0.0,0.0,0.0,0.0,0.0,0.0,0.0,1.67814032503945E+09,0.0,2023-03-06 14:05:25.039
108.0,-1201.5627266839400,-4019.961240286980,10491.662978132100,-14010.162831564300,21669.61391802,0.0,0.0,0.0,0.424,-0.47600000000000000,-0.8260000000000000,192.0,0.0,0.0,0.0,0.0,0.0,0.0,0.0,0.0,0.0,1.67814032504247E+09,0.0,2023-03-06 14:05:25.042
109.0,-1199.104034793860,-4020.698847854,10493.674635133100,-14013.448537999200,21669.47980755330,0.0,0.0,0.0,0.424,-0.47600000000000000,-0.8260000000000000,192.0,0.0,0.0,0.0,0.0,0.0,0.0,0.0,0.0,0.0,1.67814032504748E+09,0.0,2023-03-06 14:05:25.047
110.0,-1196.2430115035800,-4020.1177024981600,10509.991408585500,-14011.43688099820,21671.53616804320,0.0,0.0,0.0,0.424,-0.47600000000000000,-0.8260000000000000,192.0,0.0,0.0,0.0,0.0,0.0,0.0,0.0,0.0,0.0,1.67814032505051E+09,0.0,2023-03-06 14:05:25.050
111.0,-1199.2828487495000,-4019.581260631240,10502.861202104200,-14005.223096039700,21669.032772664200,0.0,0.0,0.0,0.424,-0.47600000000000000,-0.8260000000000000,192.0,0.0,0.0,0.0,0.0,0.0,0.0,0.0,0.0,0.0,1.67814032505452E+09,0.0,2023-03-06 14:05:25.054
112.0,-1201.294505750480,-4020.698847854,10501.095414292300,-14004.463136728200,21667.356391830000,0.0,0.0,0.0,0.424,-0.47600000000000000,-0.8260000000000000,192.0,0.0,0.0,0.0,0.0,0.0,0.0,0.0,0.0,0.0,1.67814032505853E+09,0.0,2023-03-06 14:05:25.058
113.0,-1202.233279017600,-4018.5307286418400,10502.168298026100,-14003.233790783100,21676.230034378800,0.0,0.0,0.0,0.424,-0.47600000000000000,-0.8260000000000000,192.0,0.0,0.0,0.0,0.0,0.0,0.0,0.0,0.0,0.0,1.67814032506258E+09,0.0,2023-03-06 14:05:25.062
114.0,-1197.1594330262500,-4016.6084786186800,10522.374275013700,-14009.045244341500,21683.114371671000,0.0,0.0,0.0,0.424,-0.47600000000000000,-0.8260000000000000,192.0,0.0,0.0,0.0,0.0,0.0,0.0,0.0,0.0,0.0,1.67814032506668E+09,0.0,2023-03-06 14:05:25.066
115.0,-1197.8970405932700,-4015.2450222069100,10511.108995808200,-14010.989846109100,21676.00651693420,0.0,0.0,0.0,0.424,-0.47600000000000000,-0.8260000000000000,192.0,0.0,0.0,0.0,0.0,0.0,0.0,0.0,0.0,0.0,1.67814032506972E+09,0.0,2023-03-06 14:05:25.069
116.0,-1196.3100667369400,-4017.323734441250,10505.208135272000,-14010.878087386900,21672.698458754800,0.0,0.0,0.0,0.422,-0.47800000000000000,-0.8280000000000000,192.0,13.0,48.0,241.0,16.0,230.0,32.0,0.0,0.0,0.0,1.67814032507363E+09,0.0,2023-03-06 14:05:25.073
117.0,-1198.2546685045600,-4018.9330600420300,10494.769870611400,-14011.10160483140,21664.540072028600,0.0,0.0,0.0,0.422,-0.47800000000000000,-0.8280000000000000,192.0,0.0,0.0,0.0,0.0,0.0,0.0,0.0,0.0,0.0,1.67814032507764E+09,0.0,2023-03-06 14:05:25.077
118.0,-1186.1176712653200,-4016.764940829870,10516.339304010800,-14008.218229796700,21674.82187447810,0.0,0.0,0.0,0.422,-0.47800000000000000,-0.8280000000000000,192.0,0.0,0.0,0.0,0.0,0.0,0.0,0.0,0.0,0.0,1.67814032508265E+09,0.0,2023-03-06 14:05:25.082
119.0,-1190.3197992229200,-4016.0273332628400,10507.197440528600,-14007.994712352100,21672.251423865700,0.0,0.0,0.0,0.422,-0.47800000000000000,-0.8280000000000000,192.0,0.0,0.0,0.0,0.0,0.0,0.0,0.0,0.0,0.0,1.67814032508668E+09,0.0,2023-03-06 14:05:25.086
120.0,-1201.7638923840400,-4019.3353914422300,10501.765966625900,-14010.162831564300,21672.564348288100,0.0,0.0,0.0,0.422,-0.47800000000000000,-0.8280000000000000,192.0,0.0,0.0,0.0,0.0,0.0,0.0,0.0,0.0,0.0,1.67814032509072E+09,0.0,2023-03-06 14:05:25.090
121.0,-1207.9329738537000,-4022.0846560102300,10487.974940297000,-14005.424261739800,21672.005554676700,0.0,0.0,0.0,0.422,-0.47800000000000000,-0.8280000000000000,192.0,0.0,0.0,0.0,0.0,0.0,0.0,0.0,0.0,0.0,1.6781403250937E+09,0.0,2023-03-06 14:05:25.093
122.0,-1196.7571016260500,-4023.8280920777400,10511.578382441800,-14006.58655245140,21686.847112995000,0.0,0.0,0.0,0.422,-0.47800000000000000,-0.8280000000000000,192.0,0.0,0.0,0.0,0.0,0.0,0.0,0.0,0.0,0.0,1.67814032509773E+09,0.0,2023-03-06 14:05:25.097
123.0,-1193.1808225132000,-4020.1400542426200,10509.41026322960,-14011.77215716510,21678.308746613100,0.0,0.0,0.0,0.422,-0.47800000000000000,-0.8280000000000000,192.0,0.0,0.0,0.0,0.0,0.0,0.0,0.0,0.0,0.0,1.67814032510175E+09,0.0,2023-03-06 14:05:25.101
124.0,-1194.7677963695300,-4018.3742664306500,10507.398606228700,-14014.476718244200,21672.921976199400,0.0,0.0,0.0,0.422,-0.47800000000000000,-0.8280000000000000,192.0,0.0,0.0,0.0,0.0,0.0,0.0,0.0,0.0,0.0,1.67814032510576E+09,0.0,2023-03-06 14:05:25.105
125.0,-1197.1817847707000,-4021.7493798434000,10492.221771743500,-14019.483509002200,21668.00459241920,0.0,0.0,0.0,0.422,-0.47800000000000000,-0.8280000000000000,192.0,0.0,0.0,0.0,0.0,0.0,0.0,0.0,0.0,0.0,1.67814032511078E+09,0.0,2023-03-06 14:05:25.110
126.0,-1193.4043399577500,-4023.7833885888300,10509.298504507400,-14020.623447969400,21677.034697179200,0.0,0.0,0.0,0.426,-0.47800000000000000,-0.8280000000000000,192.0,13.0,80.0,241.0,16.0,230.0,32.0,0.0,0.0,0.0,1.6781403251148E+09,0.0,2023-03-06 14:05:25.114
127.0,-1193.4043399577500,-4020.743551342910,10512.874783620200,-14023.372712537400,21673.86074946650,0.0,0.0,0.0,0.426,-0.47800000000000000,-0.8280000000000000,192.0,0.0,0.0,0.0,0.0,0.0,0.0,0.0,0.0,0.0,1.67814032511888E+09,0.0,2023-03-06 14:05:25.118
128.0,-1193.0690637909300,-4021.2129379764700,10507.197440528600,-14022.143366592300,21670.28447035370,0.0,0.0,0.0,0.426,-0.47800000000000000,-0.8280000000000000,192.0,0.0,0.0,0.0,0.0,0.0,0.0,0.0,0.0,0.0,1.67814032512191E+09,0.0,2023-03-06 14:05:25.121
129.0,-1199.4840144496000,-4023.2469467219100,10497.474431690500,-14022.053959614500,21664.405961561900,0.0,0.0,0.0,0.426,-0.47800000000000000,-0.8280000000000000,192.0,0.0,0.0,0.0,0.0,0.0,0.0,0.0,0.0,0.0,1.67814032512588E+09,0.0,2023-03-06 14:05:25.125
130.0,-1200.2216220166200,-4022.554042643790,10510.729016152500,-14022.456291014700,21663.981278417300,0.0,0.0,0.0,0.426,-0.47800000000000000,-0.8280000000000000,192.0,0.0,0.0,0.0,0.0,0.0,0.0,0.0,0.0,0.0,1.67814032512991E+09,0.0,2023-03-06 14:05:25.129
131.0,-1195.9524388256600,-4021.682324610030,10519.021513345400,-14026.569011994500,21665.970583673800,0.0,0.0,0.0,0.426,-0.47800000000000000,-0.8280000000000000,192.0,0.0,0.0,0.0,0.0,0.0,0.0,0.0,0.0,0.0,1.67814032513395E+09,0.0,2023-03-06 14:05:25.133
132.0,-1197.5394126819900,-4023.358705444180,10507.17508878410,-14029.608849240400,21664.540072028600,0.0,0.0,0.0,0.426,-0.47800000000000000,-0.8280000000000000,192.0,0.0,0.0,0.0,0.0,0.0,0.0,0.0,0.0,0.0,1.67814032513791E+09,0.0,2023-03-06 14:05:25.137
133.0,-1198.5899446713900,-4024.6551066225900,10494.769870611400,-14029.385331795900,21663.62365050600,0.0,0.0,0.0,0.426,-0.47800000000000000,-0.8280000000000000,192.0,0.0,0.0,0.0,0.0,0.0,0.0,0.0,0.0,0.0,1.67814032514297E+09,0.0,2023-03-06 14:05:25.142
134.0,-1197.360598726340,-4022.665801366070,10496.736824123500,-14022.72451194820,21669.077476153100,0.0,0.0,0.0,0.426,-0.47800000000000000,-0.8280000000000000,192.0,0.0,0.0,0.0,0.0,0.0,0.0,0.0,0.0,0.0,1.67814032514694E+09,0.0,2023-03-06 14:05:25.146
135.0,-1190.4762614341100,-4018.441321664010,10514.439405732100,-14023.596229981900,21671.826740721100,0.0,0.0,0.0,0.426,-0.47800000000000000,-0.8280000000000000,192.0,0.0,0.0,0.0,0.0,0.0,0.0,0.0,0.0,0.0,1.67814032514996E+09,0.0,2023-03-06 14:05:25.149
136.0,-1194.0748922914100,-4016.4073129185800,10503.040016059900,-14020.668151458300,21669.39040057550,0.0,0.0,0.0,0.42,-0.47400000000000000,-0.8220000000000000,192.0,13.0,32.0,241.0,48.0,230.0,80.0,0.0,0.0,0.0,1.67814032515397E+09,0.0,2023-03-06 14:05:25.153
137.0,-1195.61716265883,-4016.876699552140,10491.618274643200,-14019.10352934640,21669.85978720900,0.0,0.0,0.0,0.42,-0.47400000000000000,-0.8220000000000000,192.0,0.0,0.0,0.0,0.0,0.0,0.0,0.0,0.0,0.0,1.67814032515798E+09,0.0,2023-03-06 14:05:25.157
138.0,-1197.874688848820,-4018.1507489861000,10485.002158284400,-14018.231811312700,21674.866577967000,0.0,0.0,0.0,0.42,-0.47400000000000000,-0.8220000000000000,192.0,0.0,0.0,0.0,0.0,0.0,0.0,0.0,0.0,0.0,1.67814032516199E+09,0.0,2023-03-06 14:05:25.161
139.0,-1197.0923777928800,-4018.5307286418400,10506.973923084000,-14013.91792463280,21690.088115941100,0.0,0.0,0.0,0.42,-0.47400000000000000,-0.8220000000000000,192.0,0.0,0.0,0.0,0.0,0.0,0.0,0.0,0.0,0.0,1.67814032516606E+09,0.0,2023-03-06 14:05:25.166
140.0,-1193.7396161245800,-4016.8990512966000,10500.134289280700,-14003.680825672200,21691.45157235280,0.0,0.0,0.0,0.42,-0.47400000000000000,-0.8220000000000000,192.0,0.0,0.0,0.0,0.0,0.0,0.0,0.0,0.0,0.0,1.67814032517005E+09,0.0,2023-03-06 14:05:25.170
141.0,-1186.296485220970,-4017.6366588636200,10500.357806725200,-14004.977226850700,21681.058011181100,0.0,0.0,0.0,0.42,-0.47400000000000000,-0.8220000000000000,192.0,0.0,0.0,0.0,0.0,0.0,0.0,0.0,0.0,0.0,1.67814032517508E+09,0.0,2023-03-06 14:05:25.175
142.0,-1190.9903515565800,-4019.670667609060,10491.037129287400,-14018.097700845900,21666.19410111830,0.0,0.0,0.0,0.42,-0.47400000000000000,-0.8220000000000000,192.0,0.0,0.0,0.0,0.0,0.0,0.0,0.0,0.0,0.0,1.67814032517809E+09,0.0,2023-03-06 14:05:25.178
143.0,-1188.2410869885800,-4020.385923431630,10509.991408585500,-14016.913058389800,21682.33206061510,0.0,0.0,0.0,0.42,-0.47400000000000000,-0.8220000000000000,192.0,0.0,0.0,0.0,0.0,0.0,0.0,0.0,0.0,0.0,1.67814032518213E+09,0.0,2023-03-06 14:05:25.182
144.0,-1186.6764648767100,-4015.803815818290,10500.022530558400,-14005.826593140000,21684.947214716300,0.0,0.0,0.0,0.42,-0.47400000000000000,-0.8220000000000000,192.0,0.0,0.0,0.0,0.0,0.0,0.0,0.0,0.0,0.0,1.67814032518621E+09,0.0,2023-03-06 14:05:25.186
145.0,-1188.8669358333300,-4014.6862285955200,10496.155678767600,-14015.01316011110,21680.610976292000,0.0,0.0,0.0,0.42,-0.47400000000000000,-0.8220000000000000,192.0,0.0,0.0,0.0,0.0,0.0,0.0,0.0,0.0,0.0,1.67814032519012E+09,0.0,2023-03-06 14:05:25.190
146.0,-1196.5112324370400,-4016.764940829870,10484.89039956220,-14017.427148512300,21666.99876391870,0.0,0.0,0.0,0.42,-0.47400000000000000,-0.8220000000000000,192.0,0.0,0.0,0.0,0.0,0.0,0.0,0.0,0.0,0.0,1.67814032519414E+09,0.0,2023-03-06 14:05:25.194
147.0,-1187.6375898882900,-4016.9661065299600,10506.75040563950,-14016.980113623200,21673.90545295540,0.0,0.0,0.0,0.41600000000000000,-0.47400000000000000,-0.8280000000000000,192.0,13.0,0.0,241.0,48.0,230.0,32.0,0.0,0.0,0.0,1.67814032519818E+09,0.0,2023-03-06 14:05:25.198
148.0,-1187.7717003550200,-4015.2673739513600,10504.381120727200,-14017.181279323300,21671.647926765400,0.0,0.0,0.0,0.41600000000000000,-0.47400000000000000,-0.8280000000000000,192.0,0.0,0.0,0.0,0.0,0.0,0.0,0.0,0.0,0.0,1.67814032520319E+09,0.0,2023-03-06 14:05:25.203
149.0,-1192.3314562239,-4014.5297663843400,10499.620199158200,-14011.123956575900,21672.251423865700,0.0,0.0,0.0,0.41600000000000000,-0.47400000000000000,-0.8280000000000000,192.0,0.0,0.0,0.0,0.0,0.0,0.0,0.0,0.0,0.0,1.6781403252062E+09,0.0,2023-03-06 14:05:25.206
150.0,-1198.3217237379200,-4017.03316176333,10485.516248406900,-14009.112299574900,21669.43510406440,0.0,0.0,0.0,0.41600000000000000,-0.47400000000000000,-0.8280000000000000,192.0,0.0,0.0,0.0,0.0,0.0,0.0,0.0,0.0,0.0,1.67814032520925E+09,0.0,2023-03-06 14:05:25.209
151.0,-1198.9252208382200,-4020.8776618096400,10498.904943335600,-14015.527250233600,21679.068705924600,0.0,0.0,0.0,0.41600000000000000,-0.47400000000000000,-0.8280000000000000,192.0,0.0,0.0,0.0,0.0,0.0,0.0,0.0,0.0,0.0,1.67814032521433E+09,0.0,2023-03-06 14:05:25.214
152.0,-1199.7075318941500,-4016.9214030410500,10500.558972425300,-14014.074386844000,21682.510874570700,0.0,0.0,0.0,0.41600000000000000,-0.47400000000000000,-0.8280000000000000,192.0,0.0,0.0,0.0,0.0,0.0,0.0,0.0,0.0,0.0,1.67814032521824E+09,0.0,2023-03-06 14:05:25.218
153.0,-1196.3547702258600,-4016.5637751297700,10495.216905500500,-14012.53211647660,21681.549749559100,0.0,0.0,0.0,0.41600000000000000,-0.47400000000000000,-0.8280000000000000,192.0,0.0,0.0,0.0,0.0,0.0,0.0,0.0,0.0,0.0,1.67814032522226E+09,0.0,2023-03-06 14:05:25.222
154.0,-1199.4393109606900,-4017.7931210748100,10483.21401872800,-14015.504898489100,21677.280566368200,0.0,0.0,0.0,0.41600000000000000,-0.47400000000000000,-0.8280000000000000,192.0,0.0,0.0,0.0,0.0,0.0,0.0,0.0,0.0,0.0,1.67814032522629E+09,0.0,2023-03-06 14:05:25.226
155.0,-1199.6404766607900,-4021.9505455435000,10494.009911299900,-14017.49420374560,21681.616804792500,0.0,0.0,0.0,0.41600000000000000,-0.47400000000000000,-0.8280000000000000,192.0,0.0,0.0,0.0,0.0,0.0,0.0,0.0,0.0,0.0,1.67814032523134E+09,0.0,2023-03-06 14:05:25.231
156.0,-1191.6609038902400,-4022.665801366070,10502.592981170800,-14018.67884620180,21681.505046070200,0.0,0.0,0.0,0.41600000000000000,-0.47400000000000000,-0.8280000000000000,192.0,0.0,0.0,0.0,0.0,0.0,0.0,0.0,0.0,0.0,1.67814032523433E+09,0.0,2023-03-06 14:05:25.234
157.0,-1190.6774271342100,-4021.4588071654800,10493.875800833200,-14016.801299667500,21672.09496165450,0.0,0.0,0.0,0.41600000000000000,-0.464,-0.8240000000000000,192.0,13.0,0.0,241.0,128.0,230.0,64.0,0.0,0.0,0.0,1.67814032523734E+09,0.0,2023-03-06 14:05:25.237
158.0,-1191.2809242345000,-4018.798949575300,10484.018681528400,-14012.509764732100,21672.27377561020,0.0,0.0,0.0,0.41600000000000000,-0.464,-0.8240000000000000,192.0,0.0,0.0,0.0,0.0,0.0,0.0,0.0,0.0,0.0,1.67814032524239E+09,0.0,2023-03-06 14:05:25.242
159.0,-1194.298409735970,-4020.5423856428100,10483.54929489490,-14014.789642666500,21674.24072912230,0.0,0.0,0.0,0.41600000000000000,-0.464,-0.8240000000000000,192.0,0.0,0.0,0.0,0.0,0.0,0.0,0.0,0.0,0.0,1.67814032524636E+09,0.0,2023-03-06 14:05:25.246
160.0,-1193.1808225132000,-4020.7211995984600,10497.899114835200,-14023.305657304000,21680.499217569700,0.0,0.0,0.0,0.41600000000000000,-0.464,-0.8240000000000000,192.0,0.0,0.0,0.0,0.0,0.0,0.0,0.0,0.0,0.0,1.67814032525044E+09,0.0,2023-03-06 14:05:25.250
161.0,-1202.6132586733400,-4020.2741647093500,10485.739765851500,-14020.668151458300,21674.95598494480,0.0,0.0,0.0,0.41600000000000000,-0.464,-0.8240000000000000,192.0,0.0,0.0,0.0,0.0,0.0,0.0,0.0,0.0,0.0,1.6781403252554E+09,0.0,2023-03-06 14:05:25.255
162.0,-1207.2400697755900,-4023.6269263776500,10479.1236494927,-14010.609866453400,21669.211586619800,0.0,0.0,0.0,0.41600000000000000,-0.464,-0.8240000000000000,192.0,0.0,0.0,0.0,0.0,0.0,0.0,0.0,0.0,0.0,1.67814032525849E+09,0.0,2023-03-06 14:05:25.258
163.0,-1205.3178197524300,-4025.0797897672400,10477.559027380800,-14009.760500164100,21667.870481952500,0.0,0.0,0.0,0.41600000000000000,-0.464,-0.8240000000000000,192.0,0.0,0.0,0.0,0.0,0.0,0.0,0.0,0.0,0.0,1.67814032526245E+09,0.0,2023-03-06 14:05:25.262
164.0,-1198.9699243271300,-4023.1351879996300,10501.944780581600,-14008.48645073010,21682.39911584840,0.0,0.0,0.0,0.41600000000000000,-0.464,-0.8240000000000000,192.0,0.0,0.0,0.0,0.0,0.0,0.0,0.0,0.0,0.0,1.67814032526651E+09,0.0,2023-03-06 14:05:25.266
165.0,-1194.454871947150,-4020.2741647093500,10494.613408400200,-14006.832421640400,21678.465208824300,0.0,0.0,0.0,0.41600000000000000,-0.464,-0.8240000000000000,192.0,0.0,0.0,0.0,0.0,0.0,0.0,0.0,0.0,0.0,1.6781403252705E+09,0.0,2023-03-06 14:05:25.270
166.0,-1191.035055045490,-4020.1400542426200,10491.305350220800,-14008.799375152500,21677.615842535,0.0,0.0,0.0,0.41600000000000000,-0.464,-0.8240000000000000,192.0,0.0,0.0,0.0,0.0,0.0,0.0,0.0,0.0,0.0,1.6781403252735E+09,0.0,2023-03-06 14:05:25.273
167.0,-1194.2760579915100,-4020.967068787460,10481.761155338400,-14008.240581541100,21677.459380323800,0.0,0.0,0.0,0.42,-0.468,-0.8240000000000000,192.0,13.0,32.0,241.0,96.0,230.0,64.0,0.0,0.0,0.0,1.67814032527752E+09,0.0,2023-03-06 14:05:25.277
168.0,-1186.1176712653200,-4019.581260631240,10506.504536450500,-14005.96070360670,21691.071592697100,0.0,0.0,0.0,0.42,-0.468,-0.8240000000000000,192.0,0.0,0.0,0.0,0.0,0.0,0.0,0.0,0.0,0.0,1.67814032528153E+09,0.0,2023-03-06 14:05:25.281
169.0,-1187.4811276771000,-4016.5637751297700,10500.827193358800,-14003.09968031640,21683.67316528240,0.0,0.0,0.0,0.42,-0.468,-0.8240000000000000,192.0,0.0,0.0,0.0,0.0,0.0,0.0,0.0,0.0,0.0,1.67814032528754E+09,0.0,2023-03-06 14:05:25.287
170.0,-1189.6715986337200,-4017.390789674620,10496.423899701100,-13999.165773292300,21679.359278602500,0.0,0.0,0.0,0.42,-0.468,-0.8240000000000000,192.0,0.0,0.0,0.0,0.0,0.0,0.0,0.0,0.0,0.0,1.67814032529061E+09,0.0,2023-03-06 14:05:25.290
171.0,-1190.3421509673800,-4018.061342008270,10483.035204772400,-14001.713872160200,21673.95015644430,0.0,0.0,0.0,0.42,-0.468,-0.8240000000000000,192.0,0.0,0.0,0.0,0.0,0.0,0.0,0.0,0.0,0.0,1.6781403252946E+09,0.0,2023-03-06 14:05:25.294
172.0,-1185.5588776539400,-4016.809644318780,10505.252838761000,-14009.96166586420,21686.176560661400,0.0,0.0,0.0,0.42,-0.468,-0.8240000000000000,192.0,0.0,0.0,0.0,0.0,0.0,0.0,0.0,0.0,0.0,1.67814032529871E+09,0.0,2023-03-06 14:05:25.298
173.0,-1189.0010463000600,-4016.3402576852200,10500.246048003000,-14007.257104785100,21684.120200171500,0.0,0.0,0.0,0.42,-0.468,-0.8240000000000000,192.0,0.0,0.0,0.0,0.0,0.0,0.0,0.0,0.0,0.0,1.67814032530163E+09,0.0,2023-03-06 14:05:25.301
174.0,-1191.4150347012300,-4015.6473536071000,10495.46277468950,-14008.084119329900,21683.516703071200,0.0,0.0,0.0,0.42,-0.468,-0.8240000000000000,192.0,0.0,0.0,0.0,0.0,0.0,0.0,0.0,0.0,0.0,1.67814032530563E+09,0.0,2023-03-06 14:05:25.305
175.0,-1195.751273125560,-4014.0603797507700,10482.096431505300,-14009.358168763900,21679.381630347000,0.0,0.0,0.0,0.42,-0.468,-0.8240000000000000,192.0,0.0,0.0,0.0,0.0,0.0,0.0,0.0,0.0,0.0,1.67814032530971E+09,0.0,2023-03-06 14:05:25.309
176.0,-1196.9359155816900,-4013.7251035839400,10496.781527612400,-14012.129785076400,21683.42729609340,0.0,0.0,0.0,0.42,-0.468,-0.8240000000000000,192.0,0.0,0.0,0.0,0.0,0.0,0.0,0.0,0.0,0.0,1.67814032531368E+09,0.0,2023-03-06 14:05:25.313
177.0,-1194.4772236916100,-4013.3004204392900,10501.073062547800,-14012.286247287500,21683.561406560100,0.0,0.0,0.0,0.426,-0.47000000000000000,-0.8280000000000000,192.0,13.0,80.0,241.0,80.0,230.0,32.0,0.0,0.0,0.0,1.6781403253177E+09,0.0,2023-03-06 14:05:25.317
178.0,-1190.6103719008400,-4014.909746040080,10495.17220201160,-14009.1570030638,21675.82770297860,0.0,0.0,0.0,0.426,-0.47000000000000000,-0.8280000000000000,192.0,0.0,0.0,0.0,0.0,0.0,0.0,0.0,0.0,0.0,1.67814032532273E+09,0.0,2023-03-06 14:05:25.322
179.0,-1196.1089010368500,-4016.2955541963000,10480.934140793600,-14011.191011809200,21672.072609910100,0.0,0.0,0.0,0.426,-0.47000000000000000,-0.8280000000000000,192.0,0.0,0.0,0.0,0.0,0.0,0.0,0.0,0.0,0.0,1.67814032532673E+09,0.0,2023-03-06 14:05:25.326
180.0,-1197.1370812817900,-4019.581260631240,10487.304387963300,-14010.878087386900,21682.287357126200,0.0,0.0,0.0,0.426,-0.47000000000000000,-0.8280000000000000,192.0,0.0,0.0,0.0,0.0,0.0,0.0,0.0,0.0,0.0,1.67814032532975E+09,0.0,2023-03-06 14:05:25.329
181.0,-1198.1876132711900,-4021.7940833323100,10499.709606136000,-14012.1074333319,21682.510874570700,0.0,0.0,0.0,0.426,-0.47000000000000000,-0.8280000000000000,192.0,0.0,0.0,0.0,0.0,0.0,0.0,0.0,0.0,0.0,1.67814032533378E+09,0.0,2023-03-06 14:05:25.333
182.0,-1201.294505750480,-4022.576394388250,10492.98173105500,-14017.941238634700,21669.412752319900,0.0,0.0,0.0,0.426,-0.47000000000000000,-0.8280000000000000,192.0,0.0,0.0,0.0,0.0,0.0,0.0,0.0,0.0,0.0,1.67814032533779E+09,0.0,2023-03-06 14:05:25.337
183.0,-1207.8659186203400,-4026.84557757921,10487.63966413020,-14021.696331703200,21666.462322051800,0.0,0.0,0.0,0.426,-0.47000000000000000,-0.8280000000000000,192.0,0.0,0.0,0.0,0.0,0.0,0.0,0.0,0.0,0.0,1.67814032534188E+09,0.0,2023-03-06 14:05:25.341
184.0,-1208.6929331651800,-4025.5938798897100,10489.31604496430,-14017.471852001200,21673.77134248870,0.0,0.0,0.0,0.426,-0.47000000000000000,-0.8280000000000000,192.0,0.0,0.0,0.0,0.0,0.0,0.0,0.0,0.0,0.0,1.67814032534589E+09,0.0,2023-03-06 14:05:25.345
185.0,-1205.1613575412500,-4020.7882548318200,10504.403472471700,-14013.314427532500,21685.28249088320,0.0,0.0,0.0,0.426,-0.47000000000000000,-0.8280000000000000,192.0,0.0,0.0,0.0,0.0,0.0,0.0,0.0,0.0,0.0,1.67814032534991E+09,0.0,2023-03-06 14:05:25.349
186.0,-1210.0787413214100,-4018.486025152930,10495.060443289300,-14017.091872345400,21673.97250818880,0.0,0.0,0.0,0.426,-0.47000000000000000,-0.8280000000000000,192.0,0.0,0.0,0.0,0.0,0.0,0.0,0.0,0.0,0.0,1.6781403253549E+09,0.0,2023-03-06 14:05:25.354
187.0,-1209.81052038795,-4020.7211995984600,10490.187762998100,-14015.01316011110,21670.306822098100,0.0,0.0,0.0,0.42,-0.47000000000000000,-0.8300000000000000,192.0,13.0,32.0,241.0,80.0,230.0,16.0,0.0,0.0,0.0,1.67814032535788E+09,0.0,2023-03-06 14:05:25.357
188.0,-1206.4801104641100,-4022.5316908993400,10483.079908261300,-14016.890706645300,21668.42927556390,0.0,0.0,0.0,0.42,-0.47000000000000000,-0.8300000000000000,192.0,0.0,0.0,0.0,0.0,0.0,0.0,0.0,0.0,0.0,1.6781403253619E+09,0.0,2023-03-06 14:05:25.361
189.0,-1195.3042382364600,-4022.554042643790,10502.995312571000,-14019.036474113000,21673.681935510900,0.0,0.0,0.0,0.42,-0.47000000000000000,-0.8300000000000000,192.0,0.0,0.0,0.0,0.0,0.0,0.0,0.0,0.0,0.0,1.67814032536593E+09,0.0,2023-03-06 14:05:25.365
190.0,-1194.7901481139800,-4022.1740629880500,10493.987559555500,-14021.048131114000,21663.400133061400,0.0,0.0,0.0,0.42,-0.47000000000000000,-0.8300000000000000,192.0,0.0,0.0,0.0,0.0,0.0,0.0,0.0,0.0,0.0,1.67814032536995E+09,0.0,2023-03-06 14:05:25.369
191.0,-1196.9806190706000,-4022.419932177060,10488.69019611960,-14020.511689247100,21660.5614615156,0.0,0.0,0.0,0.42,-0.47000000000000000,-0.8300000000000000,192.0,0.0,0.0,0.0,0.0,0.0,0.0,0.0,0.0,0.0,1.67814032537396E+09,0.0,2023-03-06 14:05:25.373
192.0,-1202.2109272731500,-4024.520996155860,10475.390908168700,-14016.24250605610,21659.846205693000,0.0,0.0,0.0,0.42,-0.47000000000000000,-0.8300000000000000,192.0,0.0,0.0,0.0,0.0,0.0,0.0,0.0,0.0,0.0,1.67814032537797E+09,0.0,2023-03-06 14:05:25.377
193.0,-1197.4053022152500,-4024.3421822002200,10496.781527612400,-14017.427148512300,21668.876310453000,0.0,0.0,0.0,0.42,-0.47000000000000000,-0.8300000000000000,192.0,0.0,0.0,0.0,0.0,0.0,0.0,0.0,0.0,0.0,1.67814032538303E+09,0.0,2023-03-06 14:05:25.383
194.0,-1201.4509679616700,-4022.710504854980,10493.205248499500,-14012.219192054200,21671.53616804320,0.0,0.0,0.0,0.42,-0.47000000000000000,-0.8300000000000000,192.0,0.0,0.0,0.0,0.0,0.0,0.0,0.0,0.0,0.0,1.67814032538601E+09,0.0,2023-03-06 14:05:25.386
195.0,-1200.646305161270,-4020.8329583207300,10490.880667076200,-14012.733282176600,21674.464246566800,0.0,0.0,0.0,0.42,-0.47000000000000000,-0.8300000000000000,192.0,0.0,0.0,0.0,0.0,0.0,0.0,0.0,0.0,0.0,1.67814032539003E+09,0.0,2023-03-06 14:05:25.390
196.0,-1201.3392092393900,-4022.554042643790,10477.402565169600,-14012.286247287500,21665.657659251400,0.0,0.0,0.0,0.42,-0.47000000000000000,-0.8300000000000000,192.0,0.0,0.0,0.0,0.0,0.0,0.0,0.0,0.0,0.0,1.67814032539403E+09,0.0,2023-03-06 14:05:25.394
197.0,-1197.7629301265400,-4021.011772276380,10496.468603190000,-14009.045244341500,21676.587662290100,0.0,0.0,0.0,0.418,-0.47200000000000000,-0.8300000000000000,192.0,13.0,16.0,241.0,64.0,230.0,16.0,0.0,0.0,0.0,1.67814032539808E+09,0.0,2023-03-06 14:05:25.398
198.0,-1192.4208632017200,-4018.9107082975800,10491.439460687600,-14011.459232742700,21674.017211677700,0.0,0.0,0.0,0.418,-0.47200000000000000,-0.8300000000000000,192.0,0.0,0.0,0.0,0.0,0.0,0.0,0.0,0.0,0.0,1.67814032540209E+09,0.0,2023-03-06 14:05:25.402
199.0,-1191.169165512220,-4019.1789292310400,10485.516248406900,-14008.754671663600,21674.844226222500,0.0,0.0,0.0,0.418,-0.47200000000000000,-0.8300000000000000,192.0,0.0,0.0,0.0,0.0,0.0,0.0,0.0,0.0,0.0,1.67814032540608E+09,0.0,2023-03-06 14:05:25.406
200.0,-1192.9349533241900,-4017.3460861857000,10471.479352889000,-14005.893648373300,21670.44093256490,0.0,0.0,0.0,0.418,-0.47200000000000000,-0.8300000000000000,192.0,0.0,0.0,0.0,0.0,0.0,0.0,0.0,0.0,0.0,1.67814032541113E+09,0.0,2023-03-06 14:05:25.411
201.0,-1190.7668341120300,-4015.714408840470,10487.438498430100,-14003.457308227700,21680.923900714400,0.0,0.0,0.0,0.418,-0.47200000000000000,-0.8300000000000000,192.0,0.0,0.0,0.0,0.0,0.0,0.0,0.0,0.0,0.0,1.67814032541413E+09,0.0,2023-03-06 14:05:25.414
202.0,-1192.0632352904400,-4012.7192750834600,10493.719338622000,-14005.290151273000,21682.24265363730,0.0,0.0,0.0,0.418,-0.47200000000000000,-0.8300000000000000,192.0,0.0,0.0,0.0,0.0,0.0,0.0,0.0,0.0,0.0,1.67814032541721E+09,0.0,2023-03-06 14:05:25.417
203.0,-1192.487918435090,-4012.6522198500900,10487.326739707800,-14013.806165910500,21675.24655762270,0.0,0.0,0.0,0.418,-0.47200000000000000,-0.8300000000000000,192.0,0.0,0.0,0.0,0.0,0.0,0.0,0.0,0.0,0.0,1.67814032542215E+09,0.0,2023-03-06 14:05:25.422
204.0,-1193.3149329799300,-4015.2673739513600,10476.88847504720,-14014.566125222000,21669.546862786600,0.0,0.0,0.0,0.418,-0.47200000000000000,-0.8300000000000000,192.0,0.0,0.0,0.0,0.0,0.0,0.0,0.0,0.0,0.0,1.67814032542622E+09,0.0,2023-03-06 14:05:25.426
205.0,-1195.460700447640,-4017.41314141907,10484.800992584300,-14011.34747402040,21675.80535123410,0.0,0.0,0.0,0.418,-0.47200000000000000,-0.8300000000000000,192.0,0.0,0.0,0.0,0.0,0.0,0.0,0.0,0.0,0.0,1.6781403254302E+09,0.0,2023-03-06 14:05:25.430
206.0,-1193.7396161245800,-4017.323734441250,10499.530792180400,-14013.135613576800,21680.230996636300,0.0,0.0,0.0,0.418,-0.47200000000000000,-0.8300000000000000,192.0,0.0,0.0,0.0,0.0,0.0,0.0,0.0,0.0,0.0,1.67814032543426E+09,0.0,2023-03-06 14:05:25.434
207.0,-1200.0428080609800,-4019.5589088867800,10491.327701965300,-14008.53115421910,21669.926842442400,0.0,0.0,0.0,0.42,-0.47600000000000000,-0.8320000000000000,192.0,13.0,32.0,241.0,32.0,230.0,0.0,0.0,0.0,0.0,1.67814032543925E+09,0.0,2023-03-06 14:05:25.439
208.0,-1201.942706339680,-4021.615269376670,10483.772812339400,-14004.083157072400,21666.57408077410,0.0,0.0,0.0,0.42,-0.47600000000000000,-0.8320000000000000,192.0,0.0,0.0,0.0,0.0,0.0,0.0,0.0,0.0,0.0,1.67814032544226E+09,0.0,2023-03-06 14:05:25.442
209.0,-1203.2838110070000,-4020.2741647093500,10485.69506236260,-14002.742052405100,21672.13966514350,0.0,0.0,0.0,0.42,-0.47600000000000000,-0.8320000000000000,192.0,0.0,0.0,0.0,0.0,0.0,0.0,0.0,0.0,0.0,1.67814032544528E+09,0.0,2023-03-06 14:05:25.445
210.0,-1202.0321133175000,-4017.41314141907,10505.275190505400,-14005.804241395500,21676.162979145400,0.0,0.0,0.0,0.42,-0.47600000000000000,-0.8320000000000000,192.0,0.0,0.0,0.0,0.0,0.0,0.0,0.0,0.0,0.0,1.67814032544936E+09,0.0,2023-03-06 14:05:25.449
211.0,-1204.2225842741200,-4016.2955541963000,10493.764042110900,-14010.162831564300,21670.887967454000,0.0,0.0,0.0,0.42,-0.47600000000000000,-0.8320000000000000,192.0,0.0,0.0,0.0,0.0,0.0,0.0,0.0,0.0,0.0,1.67814032545432E+09,0.0,2023-03-06 14:05:25.454
212.0,-1200.9368778391900,-4019.3353914422300,10485.628007129200,-14013.537944977000,21664.38360981750,0.0,0.0,0.0,0.42,-0.47600000000000000,-0.8320000000000000,192.0,0.0,0.0,0.0,0.0,0.0,0.0,0.0,0.0,0.0,1.67814032545835E+09,0.0,2023-03-06 14:05:25.458
213.0,-1195.9524388256600,-4018.6201356196600,10477.670786103100,-14008.709968174700,21661.164958615900,0.0,0.0,0.0,0.42,-0.47600000000000000,-0.8320000000000000,192.0,0.0,0.0,0.0,0.0,0.0,0.0,0.0,0.0,0.0,1.67814032546235E+09,0.0,2023-03-06 14:05:25.462
214.0,-1192.8902498352800,-4019.648315864600,10498.301446235400,-14007.480622229700,21667.870481952500,0.0,0.0,0.0,0.42,-0.47600000000000000,-0.8320000000000000,192.0,0.0,0.0,0.0,0.0,0.0,0.0,0.0,0.0,0.0,1.67814032546542E+09,0.0,2023-03-06 14:05:25.465
215.0,-1193.940781824680,-4019.7600745868800,10487.63966413020,-14006.765366407100,21661.276717338200,0.0,0.0,0.0,0.42,-0.47600000000000000,-0.8320000000000000,192.0,0.0,0.0,0.0,0.0,0.0,0.0,0.0,0.0,0.0,1.67814032546941E+09,0.0,2023-03-06 14:05:25.469
216.0,-1199.5510696829600,-4024.006906033390,10482.878742561200,-14008.084119329900,21660.71792372680,0.0,0.0,0.0,0.42,-0.47600000000000000,-0.8320000000000000,192.0,0.0,0.0,0.0,0.0,0.0,0.0,0.0,0.0,0.0,1.67814032547341E+09,0.0,2023-03-06 14:05:25.473
217.0,-1207.038904075490,-4029.505435169390,10468.171294709600,-14012.330950776500,21654.81706319060,0.0,0.0,0.0,0.418,-0.47400000000000000,-0.836,192.0,13.0,16.0,241.0,48.0,229.0,224.0,0.0,0.0,0.0,1.67814032547743E+09,0.0,2023-03-06 14:05:25.477
218.0,-1206.9494970976700,-4033.640507893620,10490.880667076200,-14015.303732789000,21667.311688341100,0.0,0.0,0.0,0.418,-0.47400000000000000,-0.836,192.0,0.0,0.0,0.0,0.0,0.0,0.0,0.0,0.0,0.0,1.67814032548244E+09,0.0,2023-03-06 14:05:25.482
219.0,-1208.938802354190,-4030.8912433256200,10487.84082983030,-14012.196840309700,21665.76941797370,0.0,0.0,0.0,0.418,-0.47400000000000000,-0.836,192.0,0.0,0.0,0.0,0.0,0.0,0.0,0.0,0.0,0.0,1.67814032548644E+09,0.0,2023-03-06 14:05:25.486
220.0,-1211.2410320330900,-4028.812531091280,10482.454059416500,-14010.319293775500,21669.792731975600,0.0,0.0,0.0,0.418,-0.47400000000000000,-0.836,192.0,0.0,0.0,0.0,0.0,0.0,0.0,0.0,0.0,0.0,1.67814032549051E+09,0.0,2023-03-06 14:05:25.490
221.0,-1215.8231396464300,-4028.1196270131600,10468.685384832100,-14011.191011809200,21664.070685395100,0.0,0.0,0.0,0.418,-0.47400000000000000,-0.836,192.0,0.0,0.0,0.0,0.0,0.0,0.0,0.0,0.0,0.0,1.67814032549349E+09,0.0,2023-03-06 14:05:25.493
222.0,-1204.9601918411500,-4029.03604853583,10488.1761059971,-14011.168660064800,21668.362220330500,0.0,0.0,0.0,0.418,-0.47400000000000000,-0.836,192.0,0.0,0.0,0.0,0.0,0.0,0.0,0.0,0.0,0.0,1.6781403254976E+09,0.0,2023-03-06 14:05:25.497
223.0,-1201.4509679616700,-4027.829054335240,10490.12070776470,-14013.49324148810,21666.551729029600,0.0,0.0,0.0,0.418,-0.47400000000000000,-0.836,192.0,0.0,0.0,0.0,0.0,0.0,0.0,0.0,0.0,0.0,1.67814032550151E+09,0.0,2023-03-06 14:05:25.501
224.0,-1202.1885755286900,-4029.3042694692900,10487.438498430100,-14013.448537999200,21658.77332195920,0.0,0.0,0.0,0.418,-0.47400000000000000,-0.836,192.0,0.0,0.0,0.0,0.0,0.0,0.0,0.0,0.0,0.0,1.67814032550555E+09,0.0,2023-03-06 14:05:25.505
225.0,-1206.5918691863900,-4028.32079271326,10475.681480846600,-14010.363997264400,21656.024057391200,0.0,0.0,0.0,0.418,-0.47400000000000000,-0.836,192.0,0.0,0.0,0.0,0.0,0.0,0.0,0.0,0.0,0.0,1.67814032550956E+09,0.0,2023-03-06 14:05:25.509
226.0,-1202.5685551844300,-4026.51030141238,10487.080870518800,-14011.10160483140,21669.457455808800,0.0,0.0,0.0,0.418,-0.47400000000000000,-0.836,192.0,0.0,0.0,0.0,0.0,0.0,0.0,0.0,0.0,0.0,1.67814032551458E+09,0.0,2023-03-06 14:05:25.514
